API v2.0.0
Time,P4,Fz,Pz,P3,PO8,PO7,Oz,Trial,Num_Sequences,Sequence,Tag,Label,Flash_Event
0.615789,-688.086000,-90.803831,-681.794128,-852.588636,-642.290193,-146.570282,-897.776482,-1,-1,-1,-1,-1,-1
0.619792,-692.601000,-77.000977,-684.211838,-855.605434,-648.900426,-142.389847,-920.864067,-1,-1,-1,-1,-1,-1
0.623771,-694.407000,-84.812831,-685.118999,-858.010715,-648.311874,-140.897578,-923.868298,-1,-1,-1,-1,-1,-1
0.627761,-698.922000,-92.631051,-685.739030,-858.930029,-654.622788,-146.312106,-920.594795,-1,-1,-1,-1,-1,-1
0.631748,-685.678000,-88.395831,-682.981483,-856.473087,-627.310795,-161.553152,-913.341951,-1,-1,-1,-1,-1,-1
0.635762,-668.822000,-74.242466,-672.417355,-845.909537,-607.162286,-142.298411,-890.195237,-1,-1,-1,-1,-1,-1
0.639725,-687.484000,-76.088075,-684.487871,-849.889153,-644.382064,-129.476939,-912.152373,-1,-1,-1,-1,-1,-1
0.643716,-705.243000,-90.543855,-692.060030,-854.164330,-673.515186,-128.945541,-923.620659,-1,-1,-1,-1,-1,-1
0.647713,-698.320000,-90.527587,-686.335482,-851.436297,-656.714659,-133.716402,-914.600754,-1,-1,-1,-1,-1,-1
0.651694,-687.785000,-84.797270,-676.699321,-841.500578,-640.492598,-125.280301,-902.867523,-1,-1,-1,-1,-1,-1
0.655682,-679.959000,-81.775953,-677.562096,-844.161996,-631.469322,-133.645800,-896.239754,-1,-1,-1,-1,-1,-1
0.659692,-682.367000,-78.178099,-679.970096,-845.671074,-643.156211,-139.352069,-900.445101,-1,-1,-1,-1,-1,-1
0.663662,-670.026000,-72.143246,-666.430645,-839.322884,-628.719978,-132.708078,-877.919135,-1,-1,-1,-1,-1,-1
0.667657,-670.327000,-74.846588,-671.525452,-842.620289,-624.231874,-126.112699,-900.087856,-1,-1,-1,-1,-1,-1
0.671644,-675.143000,-77.260246,-678.139129,-846.237727,-637.428806,-133.027597,-902.207836,-1,-1,-1,-1,-1,-1
0.675633,-670.929000,-76.950051,-676.621646,-847.117616,-618.248856,-139.008245,-891.703121,-1,-1,-1,-1,-1,-1
0.679622,-672.735000,-67.945514,-677.528807,-849.822537,-621.252132,-148.310310,-911.183033,-1,-1,-1,-1,-1,-1
0.683610,-694.106000,-87.514758,-697.701355,-866.399289,-665.670695,-162.185245,-936.148727,-1,-1,-1,-1,-1,-1
0.687598,-674.240000,-69.750807,-685.924905,-853.425021,-638.621039,-145.917356,-903.102183,-1,-1,-1,-1,-1,-1
0.691588,-683.571000,-74.577416,-691.960162,-858.860694,-644.659530,-142.954810,-930.706210,-1,-1,-1,-1,-1,-1
0.695580,-681.163000,-68.265611,-684.458742,-856.153054,-644.945401,-152.240671,-917.214571,-1,-1,-1,-1,-1,-1
0.699567,-692.300000,-77.300562,-693.198839,-859.799041,-662.068781,-157.380819,-932.245822,-1,-1,-1,-1,-1,-1
0.703559,-684.173000,-83.887905,-681.476483,-850.773120,-638.377193,-140.858226,-908.242257,-1,-1,-1,-1,-1,-1
0.707550,-676.949000,-85.972978,-679.046291,-845.646603,-640.132763,-132.135013,-908.806761,-1,-1,-1,-1,-1,-1
0.711550,-673.939000,-91.371173,-677.534355,-839.939839,-628.143193,-117.730995,-906.395877,-1,-1,-1,-1,-1,-1
0.715530,-678.755000,-95.286295,-681.151904,-851.647570,-626.673494,-141.736921,-908.515856,-1,-1,-1,-1,-1,-1
0.719521,-667.618000,-85.350466,-673.011033,-849.799426,-606.856243,-156.986069,-890.189468,-1,-1,-1,-1,-1,-1
0.723522,-684.173000,-80.584685,-677.881128,-845.079950,-657.533609,-136.360587,-907.942700,-1,-1,-1,-1,-1,-1
0.727494,-687.183000,-87.798783,-687.782226,-851.385996,-653.958591,-157.660985,-905.261101,-1,-1,-1,-1,-1,-1
0.731487,-683.270000,-103.404808,-688.962646,-851.967603,-631.787132,-162.143578,-901.947216,-1,-1,-1,-1,-1,-1
0.735478,-685.076000,-106.712271,-688.371742,-857.369289,-640.178150,-167.847532,-917.233319,-1,-1,-1,-1,-1,-1
0.739466,-687.183000,-103.113710,-685.684935,-856.779525,-642.285150,-157.660985,-914.846951,-1,-1,-1,-1,-1,-1
0.743452,-690.193000,-100.117856,-684.500354,-852.298512,-653.975401,-147.777754,-919.055183,-1,-1,-1,-1,-1,-1
0.747442,-681.464000,-98.595881,-683.561291,-854.056930,-645.545720,-160.937263,-902.837237,-1,-1,-1,-1,-1,-1
0.751431,-677.551000,-97.385515,-681.745581,-855.837099,-630.258598,-163.021115,-905.814067,-1,-1,-1,-1,-1,-1
0.755418,-653.772000,-86.819394,-661.861550,-838.650190,-587.921820,-146.438337,-869.753196,-1,-1,-1,-1,-1,-1
0.759408,-677.250000,-85.973685,-680.246129,-852.539694,-637.739892,-155.224050,-914.499802,-1,-1,-1,-1,-1,-1
0.763402,-687.183000,-92.002880,-686.883387,-858.277727,-653.359953,-164.257522,-931.023074,-1,-1,-1,-1,-1,-1
0.767404,-682.969000,-98.899710,-680.572096,-855.561930,-635.975917,-170.837856,-910.033836,-1,-1,-1,-1,-1,-1
0.771374,-682.367000,-99.498881,-679.970096,-855.259570,-638.067788,-164.239004,-906.735815,-1,-1,-1,-1,-1,-1
0.775364,-685.678000,-96.503734,-684.479548,-857.971289,-640.181512,-166.050791,-928.619401,-1,-1,-1,-1,-1,-1
0.779364,-679.056000,-89.281149,-676.059871,-848.952165,-630.267003,-159.728634,-905.521720,-1,-1,-1,-1,-1,-1
0.783348,-678.755000,-73.665221,-672.463128,-842.358715,-643.435358,-157.628578,-912.110550,-1,-1,-1,-1,-1,-1
0.787332,-675.745000,-70.354929,-677.243065,-848.337930,-638.030806,-166.012596,-919.585074,-1,-1,-1,-1,-1,-1
0.791349,-675.143000,-79.962880,-671.248032,-841.143839,-634.734935,-162.712013,-902.207836,-1,-1,-1,-1,-1,-1
0.795345,-667.016000,-76.340271,-664.619096,-838.710008,-617.927684,-167.778087,-897.076414,-1,-1,-1,-1,-1,-1
0.799300,-667.919000,-75.741807,-664.623258,-838.114806,-620.027960,-167.181874,-905.767918,-1,-1,-1,-1,-1,-1
0.803292,-677.250000,-85.072807,-669.759676,-840.554074,-640.134444,-167.517596,-911.204666,-1,-1,-1,-1,-1,-1
0.807279,-677.551000,-81.770295,-664.068417,-844.750401,-640.435444,-180.711828,-900.422026,-1,-1,-1,-1,-1,-1
0.811297,-660.394000,-76.324710,-655.300580,-831.788368,-605.019985,-160.856245,-889.555741,-1,-1,-1,-1,-1,-1
0.815263,-674.240000,-78.759588,-664.352773,-836.345512,-638.321720,-164.807439,-903.102183,-1,-1,-1,-1,-1,-1
0.819254,-689.892000,-79.096660,-680.004773,-850.499310,-660.259419,-189.754559,-926.243129,-1,-1,-1,-1,-1,-1
0.823243,-676.648000,-66.753538,-667.659612,-841.150636,-639.233125,-177.410087,-899.818584,-1,-1,-1,-1,-1,-1
0.827236,-673.638000,-58.938855,-665.248838,-833.646029,-628.440831,-163.006069,-902.200625,-1,-1,-1,-1,-1,-1
0.831219,-670.929000,-59.533075,-663.438676,-836.929839,-619.146813,-190.581170,-916.266863,-1,-1,-1,-1,-1,-1
0.835223,-666.715000,-71.234588,-658.625450,-827.921591,-621.817150,-174.973152,-896.475856,-1,-1,-1,-1,-1,-1
0.839201,-685.076000,-88.995002,-667.998062,-836.993735,-636.287003,-183.739189,-915.735530,-1,-1,-1,-1,-1,-1
0.843181,-679.658000,-91.985198,-663.778514,-838.167826,-619.195562,-200.509541,-894.740523,-1,-1,-1,-1,-1,-1
0.847184,-695.009000,-86.015416,-673.736481,-840.334644,-645.322046,-193.072504,-923.272067,-1,-1,-1,-1,-1,-1
0.851181,-695.310000,-86.016124,-676.434384,-842.433487,-652.507383,-195.472402,-931.361571,-1,-1,-1,-1,-1,-1
0.855153,-691.397000,-80.901953,-674.319062,-842.715454,-636.022985,-198.455781,-921.756972,-1,-1,-1,-1,-1,-1
0.859156,-686.882000,-82.693099,-673.099805,-844.193264,-621.630458,-212.830865,-923.233129,-1,-1,-1,-1,-1,-1
0.863142,-685.678000,-83.290856,-672.195417,-842.090343,-632.099899,-209.827809,-913.042394,-1,-1,-1,-1,-1,-1
0.867123,-678.454000,-80.871539,-667.068708,-840.859153,-614.998372,-213.697985,-904.320604,-1,-1,-1,-1,-1,-1
0.870760,-681.163000,-77.874978,-672.174612,-839.373186,-615.911458,-218.805726,-929.496442,-1,-1,-1,-1,-1,-1
0.874735,-673.939000,-73.053319,-662.553708,-834.246669,-626.646598,-221.776374,-907.594108,-1,-1,-1,-1,-1,-1
0.878723,-663.705000,-76.632783,-652.619321,-827.308715,-612.521451,-221.437179,-895.562761,-1,-1,-1,-1,-1,-1
0.882711,-671.531000,-80.254685,-662.842225,-832.138310,-617.354261,-220.867587,-917.767537,-1,-1,-1,-1,-1,-1
0.886699,-691.698000,-86.908514,-675.518901,-846.312500,-640.215132,-240.734744,-931.344265,-1,-1,-1,-1,-1,-1
0.890686,-699.524000,-104.343880,-688.737934,-860.430950,-631.279268,-264.752244,-934.077782,-1,-1,-1,-1,-1,-1
0.894675,-691.999000,-104.326198,-682.411386,-855.902355,-622.556992,-270.120475,-916.068257,-1,-1,-1,-1,-1,-1
0.898683,-689.591000,-89.906490,-673.711514,-843.905859,-631.523114,-256.018614,-914.858489,-1,-1,-1,-1,-1,-1
0.902667,-693.805000,-83.009660,-681.520869,-849.917702,-638.430985,-271.626633,-917.574700,-1,-1,-1,-1,-1,-1
0.906664,-685.979000,-82.991270,-677.589838,-847.485231,-627.611795,-256.904253,-912.444720,-1,-1,-1,-1,-1,-1
0.910632,-678.153000,-83.873758,-676.355322,-843.554558,-608.710992,-257.773688,-879.156304,-1,-1,-1,-1,-1,-1
0.914620,-682.367000,-82.682490,-677.273580,-850.764963,-624.897752,-278.179188,-904.938468,-1,-1,-1,-1,-1,-1
0.918611,-692.300000,-88.411392,-679.416643,-847.813421,-663.864695,-263.225253,-935.540959,-1,-1,-1,-1,-1,-1
0.922617,-691.096000,-87.507685,-672.819610,-842.114813,-639.313813,-262.021253,-924.451550,-1,-1,-1,-1,-1,-1
0.926587,-687.183000,-75.186489,-674.299643,-846.591748,-629.414433,-280.296605,-919.340319,-1,-1,-1,-1,-1,-1
0.930580,-682.367000,-80.280148,-668.285192,-840.876826,-628.489580,-270.683123,-908.832720,-1,-1,-1,-1,-1,-1
0.934568,-698.019000,-96.532734,-680.341836,-850.835656,-656.114340,-273.741735,-920.590468,-1,-1,-1,-1,-1,-1
0.938557,-694.407000,-97.425124,-676.729836,-852.916826,-640.230261,-280.624225,-908.291291,-1,-1,-1,-1,-1,-1
0.942559,-691.096000,-89.009148,-672.220384,-845.410859,-636.021304,-280.911336,-896.293114,-1,-1,-1,-1,-1,-1
0.946573,-677.551000,-89.878198,-665.266869,-845.050041,-601.823293,-283.257994,-887.840597,-1,-1,-1,-1,-1,-1
0.950543,-695.912000,-85.116660,-678.834062,-855.320748,-637.844114,-290.224975,-929.866666,-1,-1,-1,-1,-1,-1
0.954520,-708.253000,-89.650050,-684.583577,-861.968578,-670.538806,-285.175105,-926.930216,-1,-1,-1,-1,-1,-1
0.958530,-696.815000,-85.719368,-678.838223,-858.920512,-645.032813,-281.233170,-925.677183,-1,-1,-1,-1,-1,-1
0.962496,-698.019000,-90.226587,-676.446868,-862.221996,-647.134770,-296.529772,-920.590468,-1,-1,-1,-1,-1,-1
0.966483,-688.387000,-83.897807,-671.309062,-851.990715,-627.026605,-282.699975,-897.777924,-1,-1,-1,-1,-1,-1
0.970132,-692.300000,-86.309343,-668.630577,-854.705153,-625.252544,-275.518799,-906.184291,-1,-1,-1,-1,-1,-1
0.974128,-687.785000,-79.692294,-669.208997,-851.688355,-629.717114,-275.801281,-914.550278,-1,-1,-1,-1,-1,-1
0.978113,-703.437000,-82.732001,-677.071061,-859.549702,-656.144598,-303.446984,-923.612006,-1,-1,-1,-1,-1,-1
0.982129,-704.039000,-79.730489,-675.875383,-860.151702,-649.862261,-301.650244,-913.130366,-1,-1,-1,-1,-1,-1
0.986088,-696.514000,-80.313392,-671.646126,-854.424545,-636.949519,-292.626031,-909.200060,-1,-1,-1,-1,-1,-1
0.990134,-689.290000,-82.698758,-667.717868,-850.496591,-621.643906,-293.497781,-901.676502,-1,-1,-1,-1,-1,-1
0.994068,-700.126000,-83.925392,-665.670511,-849.646611,-645.949261,-289.641494,-912.212944,-1,-1,-1,-1,-1,-1
0.998068,-692.902000,-76.701392,-657.547672,-842.122970,-638.425942,-278.519540,-899.896461,-1,-1,-1,-1,-1,-1
1.002048,-689.892000,-72.490221,-652.440382,-836.715846,-629.728881,-278.208123,-889.397515,-1,-1,-1,-1,-1,-1
1.006037,-687.183000,-69.480928,-653.027124,-832.808284,-633.904218,-266.503846,-895.375692,-1,-1,-1,-1,-1,-1
1.010023,-685.979000,-71.880441,-649.126608,-830.705363,-621.625415,-254.205670,-876.497780,-1,-1,-1,-1,-1,-1
1.014016,-696.815000,-77.311172,-663.258350,-849.631656,-630.066863,-285.730809,-898.117862,-1,-1,-1,-1,-1,-1
1.018007,-691.096000,-85.405636,-661.434318,-851.703310,-613.273060,-282.110707,-876.522297,-1,-1,-1,-1,-1,-1
1.021998,-700.126000,-79.721294,-666.868963,-849.946251,-633.377863,-274.349522,-906.820903,-1,-1,-1,-1,-1,-1
1.025994,-707.049000,-69.827903,-674.091576,-857.768173,-639.702225,-287.269374,-918.536829,-1,-1,-1,-1,-1,-1
1.029994,-712.768000,-69.541049,-674.417543,-859.292206,-643.924630,-292.088846,-921.260250,-1,-1,-1,-1,-1,-1
1.033965,-705.845000,-78.833855,-668.992608,-851.470284,-628.920017,-286.964901,-896.962896,-1,-1,-1,-1,-1,-1
1.037949,-694.106000,-75.202757,-661.148576,-851.417264,-612.990551,-287.819290,-872.342909,-1,-1,-1,-1,-1,-1
1.041985,-696.213000,-77.309757,-663.854802,-849.029656,-624.975078,-284.229281,-907.101713,-1,-1,-1,-1,-1,-1
1.045951,-704.641000,-89.341270,-664.492865,-852.363768,-635.498311,-280.963420,-902.948284,-1,-1,-1,-1,-1,-1
1.049935,-694.106000,-86.313587,-658.751672,-846.023735,-611.493956,-269.528892,-880.131413,-1,-1,-1,-1,-1,-1
1.053908,-695.009000,-80.610148,-658.755834,-843.930330,-605.811938,-270.132049,-889.122474,-1,-1,-1,-1,-1,-1
1.057918,-700.728000,-73.116269,-662.377543,-845.454363,-625.598931,-274.951522,-889.748991,-1,-1,-1,-1,-1,-1
1.061887,-714.273000,-79.754537,-672.626801,-854.804396,-640.341207,-277.702188,-907.487801,-1,-1,-1,-1,-1,-1
1.065894,-726.915000,-89.994196,-685.568414,-863.251429,-644.901594,-278.650327,-924.922726,-1,-1,-1,-1,-1,-1
1.069467,-717.584000,-86.969342,-681.930059,-858.714677,-620.006006,-269.319327,-904.208529,-1,-1,-1,-1,-1,-1
1.073407,-709.758000,-91.755636,-677.399802,-858.379689,-605.594988,-270.188763,-897.580760,-1,-1,-1,-1,-1,-1
1.077393,-728.721000,-106.814831,-687.674026,-862.660305,-644.911680,-262.465772,-909.054814,-1,-1,-1,-1,-1,-1
1.081372,-743.470000,-111.053586,-700.924962,-873.513978,-662.953189,-268.819180,-930.993202,-1,-1,-1,-1,-1,-1
1.085362,-731.129000,-110.123709,-695.175447,-868.064710,-643.129214,-268.771726,-922.546454,-1,-1,-1,-1,-1,-1
1.089351,-728.119000,-113.119563,-693.663511,-866.253272,-631.738282,-257.665976,-915.043086,-1,-1,-1,-1,-1,-1
1.093346,-712.166000,-97.466855,-677.410898,-851.199193,-619.975748,-226.720846,-890.702467,-1,-1,-1,-1,-1,-1
1.097324,-724.206000,-100.197782,-690.050124,-865.935958,-632.614386,-261.249041,-918.918590,-1,-1,-1,-1,-1,-1
1.101336,-725.109000,-100.199904,-693.350028,-873.131408,-626.932368,-277.743855,-926.711420,-1,-1,-1,-1,-1,-1
1.105298,-717.283000,-89.971562,-687.920931,-868.002173,-623.296834,-262.721633,-910.797359,-1,-1,-1,-1,-1,-1
1.109292,-726.313000,-91.193952,-692.456737,-866.844396,-656.870992,-255.560133,-902.752562,-1,-1,-1,-1,-1,-1
1.113283,-717.584000,-88.771099,-687.922318,-859.313958,-629.284895,-246.831133,-906.904549,0,6,0,0,0,0
1.117283,-710.962000,-95.662270,-685.195287,-858.085487,-616.377196,-237.210707,-915.559998,0,6,0,0,0,0
1.121260,-735.042000,-102.925879,-693.995026,-862.389214,-663.205440,-229.507393,-940.538672,0,6,0,0,0,0
1.125276,-725.109000,-98.698440,-687.657382,-862.643991,-646.687422,-244.161485,-931.504345,0,6,0,0,0,0
1.129255,-720.895000,-93.283269,-688.536802,-861.126755,-640.976827,-230.052680,-916.206706,0,6,0,0,0,0
1.133224,-704.942000,-83.336123,-674.681092,-845.773036,-625.622465,-196.109124,-887.971835,0,6,0,0,0,0
1.137217,-699.825000,-77.318245,-672.859835,-851.443094,-615.716361,-226.373550,-901.726978,0,6,0,0,0,0
1.141223,-698.019000,-78.214879,-667.158867,-845.442127,-615.107637,-205.377624,-896.625842,0,6,0,0,0,0
1.145204,-715.477000,-81.258830,-677.426156,-850.914507,-648.429544,-207.243809,-933.555101,0,6,0,0,0,0
1.149185,-716.079000,-80.359367,-676.230478,-851.516507,-649.330863,-215.641717,-932.060196,0,6,0,0,0,0
1.153198,-718.186000,-78.562562,-674.142897,-845.533214,-648.444673,-207.254226,-923.383114,0,6,0,0,0,0
1.157160,-706.748000,-71.628952,-665.101801,-840.387664,-620.544128,-202.712606,-914.042019,0,6,0,0,0,0
1.161154,-707.952000,-69.229440,-662.111219,-837.995978,-635.217483,-190.123846,-908.356189,0,6,0,0,0,0
1.165157,-713.972000,-67.742122,-662.138960,-838.622449,-649.019777,-188.347939,-925.759386,0,6,0,0,0,0
1.169144,-702.233000,-68.915708,-658.489510,-834.674102,-626.205974,-188.002958,-916.117291,0,6,0,0,0,0
1.173115,-696.514000,-53.887635,-656.365865,-827.756540,-616.895146,-166.991985,-899.015094,0,6,0,0,0,0
1.177125,-706.748000,-62.019586,-666.899478,-841.286586,-637.904630,-177.825671,-897.865896,0,6,0,0,0,0
1.181118,-707.651000,-69.829318,-666.604026,-843.388148,-631.923293,-179.328356,-909.552978,0,6,0,0,0,0
1.185094,-713.671000,-88.161318,-668.129832,-851.205991,-643.331035,-200.340485,-930.550870,0,6,0,0,0,0
1.189075,-697.718000,-81.217099,-657.869478,-838.549036,-618.997103,-193.382763,-908.007597,0,6,0,0,0,0
1.193065,-693.203000,-76.702099,-652.755252,-835.232598,-602.210024,-180.472171,-895.404536,0,6,0,0,0,0
1.197074,-681.464000,-64.963099,-644.911221,-827.688565,-601.246508,-176.828920,-856.106215,0,6,0,0,0,0
1.201063,-711.865000,-77.046245,-668.121510,-846.403586,-647.511415,-187.440310,-936.832931,0,6,0,0,0,0
1.205037,-715.477000,-71.048878,-678.324995,-849.715945,-650.225458,-191.651995,-940.744489,0,6,0,0,0,0
1.209023,-702.835000,-74.922977,-672.574092,-845.763520,-622.318189,-174.512356,-911.027692,0,6,0,0,0,0
1.213031,-699.524000,-83.323392,-675.854577,-849.943532,-626.190845,-184.994115,-902.624209,0,6,0,0,0,0
1.217016,-709.758000,-91.455343,-682.493222,-851.188317,-641.812587,-177.837245,-915.254672,0,6,0,0,0,0
1.220988,-708.855000,-87.849709,-681.290609,-851.783520,-628.637508,-181.431884,-908.959631,0,6,0,0,0,0
1.224977,-714.875000,-91.167074,-688.808674,-859.901003,-639.446612,-191.349837,-913.182284,0,6,0,0,0,0
1.228971,-726.313000,-91.193952,-694.853641,-866.245115,-652.081888,-191.093976,-928.814094,0,6,0,0,0,0
1.232957,-722.701000,-90.284586,-693.338931,-866.828082,-640.986913,-199.475680,-920.708726,0,6,0,0,0,0
1.236958,-718.487000,-86.671172,-685.229963,-862.614082,-638.269508,-194.961837,-918.591631,0,6,0,0,0,0
1.240948,-717.584000,-92.074318,-685.825028,-866.205689,-630.781490,-200.655374,-918.587304,0,6,0,0,0,0
1.244930,-716.079000,-89.668440,-686.117705,-862.603206,-633.167637,-195.252421,-920.676998,0,6,0,0,0,0
1.248915,-707.651000,-86.345416,-683.082738,-858.070532,-628.032146,-188.623476,-911.350325,0,6,0,0,0,0
1.252901,-703.136000,-89.037441,-677.968513,-850.559127,-622.619189,-170.615560,-906.835325,0,6,0,0,0,0
1.256895,-692.300000,-84.507587,-670.727868,-843.618454,-596.517920,-168.774837,-883.717454,0,6,0,0,0,0
1.260888,-691.999000,-84.807173,-673.722610,-839.422127,-610.883551,-156.779976,-869.337236,0,6,0,0,0,0
1.264880,-710.360000,-93.859099,-692.383223,-856.884206,-633.734336,-193.431374,-914.059325,0,6,0,0,0,0
1.268860,-707.952000,-89.349050,-691.173675,-858.970813,-619.652895,-193.721958,-926.629216,0,6,0,0,0,0
1.272851,-716.380000,-83.363001,-691.811738,-856.911396,-634.665913,-181.460819,-928.766502,0,6,0,0,0,0
1.276841,-717.283000,-79.461318,-688.520157,-859.911879,-645.745759,-187.461143,-935.361101,0,6,0,0,0,0
1.280837,-709.457000,-84.848196,-684.888738,-861.075094,-643.307501,-194.627272,-922.143060,0,6,0,0,0,0
1.284817,-705.544000,-85.139294,-680.975738,-857.162094,-634.605397,-187.416004,-918.529618,0,6,0,0,0,0
1.288812,-696.815000,-79.112928,-674.643642,-852.028781,-627.073673,-183.784328,-902.311672,0,6,0,0,0,0
1.292799,-691.397000,-74.295514,-673.420223,-852.903231,-627.043415,-184.962865,-910.673332,0,6,0,0,0,0
1.296792,-690.795000,-80.299953,-676.713192,-854.398715,-621.951630,-189.458189,-915.463373,0,6,0,0,0,0
1.300776,-687.183000,-82.693807,-672.501966,-844.194624,-618.638949,-160.659411,-893.278788,0,6,0,0,0,0
1.304768,-686.581000,-83.292978,-673.697643,-846.888669,-609.356698,-180.746550,-885.786957,0,6,0,0,0,0
1.308774,-696.213000,-84.216489,-679.734288,-850.228219,-625.573716,-180.783587,-932.863686,0,6,0,0,0,0
1.312763,-695.009000,-88.718051,-678.530288,-848.424937,-627.662225,-183.777383,-918.479142,0,6,0,0,0,0
1.316738,-697.718000,-93.829392,-680.640062,-852.931781,-633.963053,-181.688902,-905.012019,0,6,0,0,0,0
1.320726,-699.223000,-92.932051,-677.650868,-852.938578,-636.665329,-179.895634,-905.019230,0,6,0,0,0,0
1.324717,-697.718000,-90.826465,-680.939675,-855.328905,-632.466458,-174.792522,-909.804944,0,6,0,0,0,0
1.328712,-707.651000,-92.351270,-690.573062,-859.568735,-641.202182,-180.527726,-935.314951,0,6,0,0,0,0
1.332695,-706.146000,-97.452709,-681.577738,-855.366970,-636.703992,-162.531384,-920.629407,0,6,0,0,0,0
1.336683,-698.019000,-96.232441,-677.345707,-855.330264,-626.781078,-171.795254,-919.392237,0,6,0,0,0,0
1.340672,-687.785000,-95.007222,-672.504740,-851.388715,-614.451845,-174.154643,-907.360890,0,6,0,0,0,0
1.345023,-685.377000,-98.304783,-671.295192,-845.385029,-607.254741,-160.352624,-902.556427,0,6,0,0,0,0
1.348652,-687.785000,-100.112198,-670.107836,-850.190153,-594.996110,-162.760624,-897.175924,0,6,0,0,0,0
1.352643,-688.989000,-98.913856,-671.012223,-848.697388,-611.764698,-169.361791,-904.371080,0,6,0,0,0,0
1.356630,-707.952000,-101.661051,-683.084126,-855.674768,-654.373899,-176.930773,-915.545577,0,6,0,0,0,0
1.360641,-698.621000,-99.837368,-673.753126,-845.744487,-639.056519,-160.403550,-903.818114,0,6,0,0,0,0
1.364609,-694.407000,-100.127758,-670.437964,-841.230846,-625.862949,-154.090652,-902.300135,0,6,0,0,0,0
1.368596,-695.009000,-89.018343,-670.141126,-840.933925,-632.451329,-160.689504,-908.893291,0,6,0,0,0,0
1.372597,-689.591000,-88.104734,-663.824287,-836.414846,-625.836053,-141.478745,-895.686788,0,6,0,0,0,0
1.376590,-688.387000,-87.801612,-658.126092,-828.019474,-620.740906,-109.091115,-886.095168,0,6,0,0,0,0
1.380570,-689.290000,-88.104026,-661.725609,-833.417082,-616.555483,-126.785301,-898.980482,0,6,0,0,0,0
1.384618,-692.300000,-92.915783,-677.319353,-847.214140,-629.143691,-174.172004,-909.179870,0,6,0,0,0,0
1.388547,-695.009000,-83.613075,-672.238416,-843.331049,-634.546562,-160.389661,-915.483563,0,6,0,0,0,0
1.392533,-694.106000,-91.718856,-676.129223,-847.821578,-631.548329,-160.086347,-910.386754,0,6,0,0,0,0
1.396524,-689.591000,-91.708246,-675.509192,-848.999748,-620.148992,-156.171032,-910.664679,0,6,0,0,0,0
1.400510,-688.387000,-91.705417,-671.009449,-844.200062,-626.128648,-141.773958,-898.676597,0,6,0,0,0,0
1.404499,-696.514000,-89.622465,-671.046900,-846.933532,-634.255648,-136.108199,-916.389448,0,6,0,0,0,0
1.408490,-681.765000,-78.476978,-660.192868,-832.783813,-621.302562,-130.954162,-892.953271,0,6,0,0,0,0
1.412492,-687.785000,-76.689368,-667.111707,-839.103454,-633.608261,-139.372902,-920.241877,0,6,0,0,0,0
1.416478,-689.591000,-76.693611,-670.116159,-846.302983,-630.625157,-154.072134,-914.558931,0,6,0,0,0,0
1.420456,-691.397000,-75.496684,-668.326803,-850.506107,-634.526390,-156.477819,-907.977312,0,6,0,0,0,0
1.424445,-687.484000,-70.082221,-663.514964,-844.195983,-632.708623,-151.965134,-899.271386,0,6,0,0,0,0
1.428447,-683.872000,-61.064952,-661.401029,-841.782545,-613.831354,-145.054865,-906.743026,0,6,0,0,0,0
1.432483,-678.153000,-59.249757,-659.876610,-836.962467,-603.921888,-149.530513,-902.222257,0,6,0,0,0,0
1.436417,-695.912000,-69.501440,-669.546061,-843.634768,-641.136623,-151.997541,-912.791870,0,6,0,0,0,0
1.440420,-695.310000,-66.497099,-667.146383,-840.036363,-641.133261,-156.193023,-914.586332,0,6,0,0,0,0
1.444392,-698.320000,-72.510026,-669.557157,-840.948879,-650.129641,-142.711680,-919.094121,0,6,0,0,0,0
1.448401,-692.902000,-62.887928,-664.438770,-837.029082,-630.344329,-147.188486,-917.270815,0,6,0,0,0,0
1.452379,-693.203000,-54.780732,-660.844802,-835.831879,-641.420813,-139.393736,-912.479332,0,6,0,0,0,0
1.456361,-688.688000,-51.466903,-658.726705,-830.417958,-638.402408,-130.081254,-906.766101,0,6,0,0,0,0
1.460351,-684.775000,-61.067074,-660.506351,-834.295611,-627.904390,-137.562273,-902.853101,0,6,0,0,0,0
1.464343,-682.367000,-61.962294,-657.499126,-833.985094,-621.605243,-138.752384,-910.330509,0,6,0,0,0,0
1.468359,-680.561000,-62.258343,-658.090029,-837.272983,-618.003329,-149.839615,-907.026720,0,6,0,0,0,0
1.472329,-678.755000,-62.854684,-652.089448,-829.773813,-619.489838,-126.744791,-889.643713,0,6,0,0,0,0
1.476309,-673.939000,-58.639270,-653.864933,-825.557094,-616.469752,-123.727847,-887.224176,0,6,0,0,0,0
1.480300,-687.484000,-62.574904,-663.514964,-835.506408,-630.613390,-131.275995,-908.258121,0,6,0,0,0,0
1.484365,-694.407000,-70.999367,-676.729836,-842.429408,-633.944562,-139.098523,-922.070951,0,6,0,0,0,0
1.488275,-689.892000,-61.979977,-674.012514,-840.311532,-630.028200,-130.085884,-910.666121,0,6,0,0,0,0
1.492272,-685.979000,-57.466391,-674.294095,-839.394937,-615.040397,-136.067689,-914.242067,0,6,0,0,0,0
1.496256,-702.835000,-66.214489,-680.064416,-847.261722,-646.563028,-131.634865,-931.996741,0,6,0,0,0,0
1.500247,-693.504000,-67.994318,-673.729546,-842.125689,-640.823856,-131.299143,-921.167951,0,6,0,0,0,0
1.504233,-689.591000,-68.585709,-671.614223,-843.306578,-630.924476,-142.378273,-913.360700,0,6,0,0,0,0
1.508242,-685.377000,-58.065562,-665.602546,-835.796532,-628.805709,-117.175291,-904.054216,0,6,0,0,0,0
1.512229,-682.668000,-52.954220,-663.492771,-836.083938,-619.511691,-128.858736,-906.437700,0,6,0,0,0,0
1.516216,-681.464000,-61.659879,-664.985288,-835.479219,-601.845146,-130.653162,-897.145638,0,6,0,0,0,0
1.520190,-675.745000,-59.244099,-662.262417,-836.052669,-604.806397,-131.530699,-883.937692,0,6,0,0,0,0
1.524180,-705.845000,-75.830928,-685.471320,-854.466689,-664.239659,-138.242977,-929.914257,0,6,0,0,0,0
1.528178,-694.106000,-68.596318,-675.230384,-846.623016,-637.834028,-122.006338,-908.888965,0,6,0,0,0,0
1.532310,-677.852000,-69.459002,-665.268256,-837.560388,-608.409992,-114.147930,-899.524795,0,6,0,0,0,0
1.536168,-688.387000,-76.390489,-676.102869,-852.889636,-621.938182,-142.073800,-928.033265,0,6,0,0,0,0
1.540133,-690.795000,-77.297026,-676.713192,-853.200153,-634.822347,-143.882115,-914.265142,0,6,0,0,0,0
1.544146,-690.193000,-77.595904,-669.819320,-846.904983,-644.097874,-141.780902,-932.235727,0,6,0,0,0,0
1.548483,-686.280000,-71.280562,-664.707868,-843.591264,-638.688279,-132.170893,-922.032013,0,6,0,0,0,0
1.552182,-690.494000,-75.494563,-664.128061,-840.913532,-642.004322,-115.395912,-922.651319,0,6,0,0,0,0
1.556099,-691.999000,-79.702197,-668.629190,-845.414937,-633.931114,-128.294930,-905.583733,0,6,0,0,0,0
1.560083,-688.387000,-76.690782,-665.616416,-843.001500,-630.019795,-123.483560,-904.667754,0,6,0,0,0,0
1.564103,-692.300000,-77.600855,-677.918579,-852.008388,-630.041648,-139.090421,-898.695345,0,6,0,0,0,0
1.568067,-695.310000,-89.619636,-679.730127,-853.520186,-628.561863,-130.106717,-903.802250,0,6,0,0,0,0
1.572062,-694.708000,-92.621148,-686.019225,-852.918186,-638.436028,-129.804560,-900.504230,0,6,0,0,0,0
1.576045,-691.096000,-86.907099,-675.815740,-845.111219,-630.932881,-118.396652,-897.191788,0,6,0,0,0,0
1.580059,-681.163000,-80.277319,-667.680417,-836.077140,-616.210777,-112.661449,-881.567189,0,6,0,0,0,0
1.584029,-686.280000,-82.691685,-672.497805,-840.295219,-623.722329,-124.974671,-901.662080,0,6,0,0,0,0
1.588011,-681.163000,-82.679661,-667.081192,-836.976062,-615.312820,-115.959717,-902.236679,0,6,0,0,0,0
1.591998,-672.735000,-83.260441,-662.248547,-838.436198,-607.782777,-117.126680,-892.011332,0,6,0,0,0,0
1.596005,-687.785000,-86.599026,-677.897773,-849.590872,-649.771487,-127.079356,-919.942319,0,6,0,0,0,0
1.600035,-692.601000,-87.210929,-680.616482,-853.208310,-659.675910,-135.493467,-932.546822,0,6,0,0,0,0
1.603963,-696.514000,-89.622465,-681.233740,-848.731375,-656.405254,-122.615282,-922.680162,0,6,0,0,0,0
1.607954,-691.096000,-86.606807,-680.010321,-844.811578,-650.388616,-117.497125,-907.975870,0,6,0,0,0,0
1.611944,-690.795000,-84.203758,-685.401967,-850.503388,-643.801917,-123.192977,-902.881944,0,6,0,0,0,0
1.616004,-686.280000,-83.292270,-685.680774,-850.782636,-630.008028,-126.174041,-897.468271,0,6,0,0,0,0
1.619921,-696.815000,-79.112928,-697.414226,-861.017996,-641.141666,-131.611717,-922.981162,0,6,0,0,0,0
1.623910,-703.738000,-80.630660,-700.741871,-872.735244,-645.071476,-147.829838,-940.688244,0,6,0,0,0,0
1.627899,-696.514000,-93.826563,-689.023676,-861.915558,-635.452924,-123.814652,-919.385026,0,6,0,0,0,0
1.631892,-694.106000,-88.415636,-675.529997,-849.619421,-650.704745,-99.817986,-896.607094,0,6,0,0,0,0
1.635884,-698.019000,-91.127465,-679.143384,-857.427748,-646.236813,-133.115560,-918.793121,0,6,0,0,0,0
1.639876,-688.688000,-85.399978,-671.909675,-852.591355,-633.613304,-135.778263,-911.259468,0,6,0,0,0,0
1.643857,-697.116000,-91.725929,-679.139223,-855.026545,-647.129727,-135.810671,-922.982604,0,6,0,0,0,0
1.647849,-700.728000,-94.737343,-680.653933,-850.248611,-649.843770,-131.027078,-920.004332,0,6,0,0,0,0
1.651996,-694.708000,-90.519099,-673.135868,-841.831487,-635.742157,-117.810856,-900.803788,0,6,0,0,0,0
1.655840,-694.708000,-87.816465,-671.937416,-841.531846,-633.048286,-115.412115,-894.213515,0,6,0,0,0,0
1.659826,-694.106000,-89.917099,-679.424966,-849.020140,-629.453096,-131.301458,-900.201788,0,6,0,0,0,0
1.663818,-692.902000,-98.923051,-677.921353,-846.917219,-632.738881,-122.001708,-921.165067,0,6,0,0,0,0
1.667802,-686.581000,-102.511710,-667.705384,-841.495140,-631.805623,-104.886375,-889.381651,0,6,0,0,0,0
1.671783,-695.912000,-104.935978,-668.946835,-839.140160,-638.442752,-99.225245,-914.888774,0,6,0,0,0,0
1.675776,-686.280000,-110.618905,-662.310964,-843.291624,-627.014838,-110.582227,-904.957216,0,6,0,0,0,0
1.679767,-695.912000,-107.038027,-668.047996,-848.129375,-650.116193,-119.014856,-924.175067,0,6,0,0,0,0
1.683817,-697.116000,-105.239100,-673.446577,-852.329781,-652.816788,-128.014764,-928.075088,0,6,0,0,0,0
1.687787,-688.086000,-97.109978,-668.611159,-845.397264,-634.208580,-125.281458,-908.560563,0,6,0,0,0,0
1.691731,-688.086000,-88.401490,-671.607288,-844.797983,-638.698365,-116.586023,-907.661890,0,6,0,0,0,0
1.695725,-696.213000,-93.225270,-681.232353,-849.628937,-645.029451,-119.615699,-920.881373,0,6,0,0,0,0
1.699710,-686.882000,-89.299539,-670.702901,-839.099375,-630.310709,-103.388319,-891.779556,0,6,0,0,0,0
1.703697,-686.882000,-91.701880,-670.702901,-840.897219,-623.725691,-97.691310,-898.968944,0,6,0,0,0,0
1.707686,-690.494000,-98.617100,-676.711805,-851.101310,-624.943139,-104.601578,-912.765910,0,6,0,0,0,0
1.711701,-690.795000,-97.716929,-674.915514,-858.893322,-631.529838,-136.985736,-917.260720,0,6,0,0,0,0
1.715668,-680.862000,-90.186271,-662.285997,-843.866434,-642.549168,-108.762338,-902.534795,0,6,0,0,0,0
1.719658,-679.056000,-87.179100,-655.086964,-839.663310,-631.164960,-108.755393,-895.935870,0,6,0,0,0,0
1.723642,-669.123000,-73.942880,-643.955513,-829.730310,-617.041494,-93.125384,-877.016135,0,6,0,0,0,0
1.727632,-667.016000,-58.623002,-640.350448,-823.128702,-611.941304,-84.122004,-879.402502,0,6,0,0,0,0
1.731631,-673.036000,-54.733343,-640.977415,-824.953735,-632.927254,-93.140430,-894.109679,0,6,0,0,0,0
1.735612,-671.832000,-62.838416,-642.769544,-828.843624,-619.151856,-103.930134,-893.504795,0,6,0,0,0,0
1.739600,-676.648000,-62.849733,-651.480513,-828.266094,-629.355598,-95.253217,-898.320795,0,6,0,0,0,0
1.743592,-678.454000,-73.664514,-657.181481,-831.570297,-623.977942,-93.760949,-891.739176,0,6,0,0,0,0
1.747584,-669.424000,-71.541246,-653.544514,-826.435624,-603.873139,-90.427958,-874.321556,0,6,0,0,0,0
1.751589,-678.153000,-77.267319,-662.573127,-834.265702,-630.561279,-96.158532,-905.217836,0,6,0,0,0,0
1.755558,-686.882000,-75.185782,-668.905223,-844.792545,-640.188236,-117.780764,-924.730918,0,6,0,0,0,0
1.759569,-675.745000,-67.652294,-661.063966,-838.449793,-624.860770,-108.742662,-912.395686,0,6,0,0,0,0
1.763543,-672.133000,-59.836197,-653.257384,-828.545343,-624.840598,-91.937588,-908.783686,0,6,0,0,0,0
1.767531,-668.521000,-45.413660,-650.544223,-828.229388,-626.616340,-104.816930,-905.171686,0,6,0,0,0,0
1.771514,-664.608000,-51.410319,-653.222708,-835.403087,-622.104702,-127.290078,-915.637462,0,6,0,0,0,0
1.775508,-675.745000,-49.334440,-660.464740,-833.955186,-650.003566,-118.037782,-916.589496,0,6,0,0,0,0
1.779497,-679.658000,-53.848026,-663.179288,-838.467467,-641.644487,-112.055977,-924.995863,0,6,0,0,0,0
1.783503,-670.026000,-58.930368,-657.142643,-836.626120,-619.740408,-104.522875,-903.681108,0,6,0,0,0,0
1.787510,-680.862000,-62.559343,-658.990255,-841.469310,-636.562788,-100.066903,-916.014897,0,6,0,0,0,0
1.791476,-680.561000,-63.759806,-664.981127,-842.666512,-637.459064,-103.064171,-918.409918,0,6,0,0,0,0
1.795520,-680.561000,-68.864782,-664.381901,-843.565434,-627.880856,-101.564958,-913.616992,0,6,0,0,0,0
1.799474,-679.056000,-65.858319,-659.281546,-841.461153,-629.369046,-100.359801,-920.200054,0,6,0,0,0,0
1.803431,-666.715000,-63.727270,-658.625450,-839.008289,-615.232132,-94.915180,-910.555074,0,6,0,0,0,0
1.807424,-660.996000,-49.900368,-643.918062,-828.195401,-615.200193,-78.102004,-889.858183,0,6,0,0,0,0
1.811453,-670.026000,-65.837099,-656.843030,-842.618930,-630.815211,-97.626495,-918.059884,0,6,0,0,0,0
1.815401,-673.939000,-65.546002,-659.257966,-852.225099,-631.735021,-139.319661,-925.867136,0,6,0,0,0,0
1.819406,-667.317000,-70.935710,-657.130160,-843.505616,-622.419150,-121.603486,-914.751768,0,6,0,0,0,0
1.823383,-679.658000,-76.369978,-662.580062,-849.853806,-628.474451,-120.151726,-932.484809,0,6,0,0,0,0
1.827370,-682.969000,-74.576002,-666.789901,-848.370558,-643.758211,-111.469023,-932.800231,0,6,0,0,0,0
1.831362,-689.892000,-81.499002,-667.421029,-845.405421,-654.871677,-106.398319,-926.243129,0,6,0,0,0,0
1.835354,-686.280000,-82.991978,-666.205933,-844.190545,-631.504623,-108.483328,-908.551910,0,6,0,0,0,0
1.839359,-687.785000,-82.394929,-665.913255,-844.796624,-636.601451,-107.289745,-896.277250,0,6,0,0,0,0
1.843323,-695.310000,-87.517587,-673.438255,-855.617669,-633.650286,-113.015690,-924.471741,0,6,0,0,0,0
1.847316,-691.096000,-87.807978,-668.924642,-849.306186,-631.531519,-103.104680,-906.178523,0,6,0,0,0,0
1.851301,-684.173000,-80.884978,-664.098933,-843.282107,-609.343250,-90.484671,-888.770998,0,6,0,0,0,0
1.855301,-703.738000,-81.831831,-674.975157,-852.359689,-649.860580,-99.255338,-949.075863,0,6,0,0,0,0
1.859281,-706.447000,-81.838196,-685.174481,-864.357545,-662.746426,-116.056940,-950.586632,0,6,0,0,0,0
1.863275,-692.902000,-79.704319,-677.621740,-858.303558,-637.827304,-115.705014,-916.372142,0,6,0,0,0,0
1.867263,-687.484000,-78.190124,-671.005288,-854.383760,-642.286831,-109.687328,-923.835129,0,6,0,0,0,0
1.871248,-687.785000,-94.706929,-664.415190,-848.991591,-650.370125,-90.198717,-925.034802,0,6,0,0,0,0
1.875235,-673.638000,-94.373393,-655.960836,-837.541355,-633.229935,-84.747153,-910.288686,0,6,0,0,0,0
1.879237,-682.367000,-91.090685,-661.094481,-846.270355,-639.265064,-105.469856,-925.607959,0,6,0,0,0,0
1.883228,-688.989000,-92.908002,-663.821513,-846.899545,-651.873444,-108.193903,-934.027306,0,6,0,0,0,0
1.887209,-690.193000,-91.409368,-663.527448,-845.107140,-643.199917,-116.893967,-924.147666,0,6,0,0,0,0
1.891194,-684.474000,-83.288026,-658.707287,-841.185983,-639.576150,-109.076069,-923.521149,0,6,0,0,0,0
1.895190,-678.454000,-83.273880,-657.780707,-840.259872,-628.467727,-103.056069,-915.703802,0,6,0,0,0,0
1.899223,-673.939000,-73.653905,-653.565320,-831.549905,-620.360899,-83.548940,-893.514890,0,6,0,0,0,0
1.903166,-669.424000,-67.637441,-648.151481,-830.031310,-618.839089,-83.831421,-895.290604,0,6,0,0,0,0
1.907151,-681.464000,-65.563684,-658.393803,-841.771669,-642.851849,-110.263865,-930.097000,0,6,0,0,0,0
1.911148,-674.240000,-57.138514,-650.570577,-839.341917,-633.233297,-103.039865,-912.088918,0,6,0,0,0,0
1.915156,-674.842000,-58.641392,-650.273738,-833.351826,-634.134616,-97.045328,-915.986054,0,6,0,0,0,0
1.919120,-663.404000,-63.118905,-641.532255,-821.913826,-604.438157,-82.309060,-897.358666,0,6,0,0,0,0
1.923108,-679.056000,-77.870026,-651.191996,-827.378049,-634.457469,-85.967356,-915.407129,0,6,0,0,0,0
1.927098,-682.668000,-77.578221,-650.609415,-824.397958,-631.484451,-94.076995,-905.239468,0,6,0,0,0,0
1.931123,-676.949000,-77.564783,-652.979964,-824.971408,-626.962727,-99.152328,-906.709856,0,6,0,0,0,0
1.935077,-679.056000,-75.467685,-659.581159,-836.367264,-624.579942,-126.446106,-915.407129,0,6,0,0,0,0
1.939073,-676.046000,-72.457685,-653.575029,-834.555826,-621.569942,-122.836421,-913.295802,0,6,0,0,0,0
1.943056,-667.016000,-66.130319,-651.735740,-834.515041,-599.070587,-134.495560,-889.287910,0,6,0,0,0,0
1.947053,-667.016000,-64.929148,-654.132643,-836.912165,-601.165820,-140.192569,-906.362707,0,6,0,0,0,0
1.951038,-672.735000,-65.543173,-655.357449,-838.436198,-623.646684,-146.811097,-900.998067,0,6,0,0,0,0
1.955023,-675.444000,-62.246319,-660.463353,-844.141603,-615.580200,-158.215532,-900.112373,0,6,0,0,0,0
1.959012,-695.310000,-72.202660,-677.033610,-855.018388,-641.432580,-166.387671,-947.837251,0,6,0,0,0,0
1.963018,-686.280000,-66.475879,-667.404384,-844.490186,-634.497813,-148.962078,-925.926265,0,6,0,0,0,0
1.966995,-687.484000,-71.283392,-669.207610,-849.889153,-623.729053,-162.759467,-931.623632,0,6,0,0,0,0
1.970980,-690.795000,-67.087074,-670.121707,-853.799434,-624.046863,-191.557087,-933.736401,0,6,0,0,0,0
1.974985,-690.795000,-66.786782,-666.526351,-849.005186,-618.958440,-189.158346,-921.454530,0,6,0,0,0,0
1.978935,-688.086000,-68.882465,-662.319287,-843.299781,-622.235820,-182.551393,-916.349067,0,6,0,0,0,0
1.982889,-676.347000,-64.050197,-651.479126,-829.463297,-603.313164,-169.013337,-897.420679,0,6,0,0,0,0
1.986848,-682.367000,-64.064343,-659.296803,-836.382219,-607.237931,-200.819800,-920.515475,0,6,0,0,0,0
1.990839,-673.337000,-57.436684,-649.667577,-828.550781,-608.085458,-194.188541,-905.194761,0,6,0,0,0,0
1.994843,-671.531000,-61.336246,-643.666996,-825.845859,-616.156985,-193.581911,-902.789645,0,6,0,0,0,0
1.998825,-670.327000,-61.333416,-642.462996,-824.641859,-622.136641,-186.081217,-906.678129,0,6,0,0,0,0
2.002809,-665.812000,-61.322807,-640.045287,-825.820029,-617.023003,-184.264800,-900.365782,0,6,0,0,0,0
2.006826,-670.026000,-72.743831,-645.757351,-839.023244,-626.325426,-199.872818,-915.064306,0,6,0,0,0,0
2.010783,-652.869000,-69.700588,-641.483708,-838.346471,-599.290899,-204.604327,-902.400673,0,6,0,0,0,0
2.014793,-647.451000,-62.781125,-636.365321,-830.231707,-593.872899,-189.291522,-891.890190,0,6,0,0,0,0
2.018762,-673.939000,-63.443953,-648.172287,-836.044512,-635.027530,-187.894161,-912.387033,0,6,0,0,0,0
2.022769,-659.190000,-58.904905,-635.820190,-828.786525,-602.020071,-193.234615,-892.245992,0,6,0,0,0,0
2.026742,-654.675000,-56.491953,-628.608674,-822.473682,-604.389408,-201.612846,-897.616401,0,6,0,0,0,0
2.030751,-650.160000,-44.469636,-620.498318,-805.673421,-614.241720,-188.102568,-893.700516,0,6,0,0,0,0
2.034719,-648.354000,-49.870661,-624.085351,-810.159872,-593.279304,-194.392318,-878.713972,0,6,0,0,0,0
2.038712,-667.618000,-58.023831,-642.450513,-827.326388,-617.033089,-209.458522,-897.378856,0,6,0,0,0,0
2.042698,-677.250000,-61.349684,-656.277094,-836.658748,-627.563046,-215.492411,-913.301571,0,6,0,0,0,0
2.046696,-682.066000,-67.066563,-658.995803,-840.575826,-631.780408,-217.309985,-930.699000,0,6,0,0,0,0
2.050676,-673.939000,-66.146587,-645.176157,-829.152781,-619.762261,-202.286605,-902.501625,0,6,0,0,0,0
2.054690,-673.337000,-61.040197,-640.679189,-826.752937,-605.092268,-192.089643,-898.904047,0,6,0,0,0,0
2.058671,-670.628000,-63.135880,-637.370963,-829.137826,-584.723447,-197.476392,-880.318482,0,6,0,0,0,0
2.062652,-670.026000,-56.828319,-629.877865,-822.543016,-597.590802,-194.175809,-871.628420,0,6,0,0,0,0
2.066635,-694.106000,-63.491342,-649.164058,-837.933441,-635.439476,-187.971708,-926.263319,0,6,0,0,0,0
2.070639,-707.952000,-69.830025,-663.908897,-850.281239,-639.108630,-223.706217,-926.030101,0,6,0,0,0,0
2.074619,-702.534000,-70.417879,-656.393606,-842.466115,-632.493354,-205.994670,-918.515196,0,6,0,0,0,0
2.078612,-699.223000,-72.211855,-652.782993,-834.360867,-610.624576,-197.886189,-898.428957,0,6,0,0,0,0
2.082615,-699.524000,-70.110513,-657.877801,-841.253958,-597.456221,-215.578059,-897.831284,0,6,0,0,0,0
2.086583,-727.517000,-74.980976,-672.687831,-852.766730,-649.394741,-224.081291,-937.207482,0,6,0,0,0,0
2.090573,-716.079000,-80.059074,-664.845186,-847.920821,-637.657422,-218.939985,-926.069039,0,6,0,0,0,0
2.094577,-710.962000,-75.242367,-663.323542,-841.605259,-616.975834,-215.022356,-907.771495,0,6,0,0,0,0
2.098552,-699.825000,-69.810928,-653.085380,-831.666821,-604.042920,-201.486615,-903.224767,0,6,0,0,0,0
2.102539,-705.544000,-84.839001,-659.103993,-830.494090,-631.013569,-193.412856,-893.666318,0,6,0,0,0,0
2.106526,-700.126000,-83.925392,-657.580962,-834.364945,-610.928938,-197.589819,-895.437706,0,6,0,0,0,0
2.110533,-700.427000,-83.625806,-661.477317,-838.261631,-609.733343,-213.482633,-910.417039,0,6,0,0,0,0
2.114514,-698.922000,-77.916709,-660.871156,-835.258429,-624.092250,-205.980781,-921.793026,0,6,0,0,0,0
2.118495,-690.494000,-72.791928,-647.349736,-824.133664,-612.671060,-197.852624,-893.893767,0,6,0,0,0,0
2.122485,-690.193000,-69.788294,-647.048736,-821.435540,-613.866655,-184.958235,-893.293209,0,6,0,0,0,0
2.126480,-698.019000,-72.809611,-653.975897,-830.759743,-619.298103,-207.176680,-898.123631,0,6,0,0,0,0
2.130489,-692.902000,-71.296123,-650.656575,-832.534474,-611.786551,-206.257476,-891.808400,0,6,0,0,0,0
2.134453,-692.300000,-68.892367,-647.058445,-829.235710,-620.463440,-199.658624,-890.906842,0,6,0,0,0,0
2.138439,-702.233000,-71.318050,-652.796864,-838.569429,-622.913465,-213.189735,-921.509332,0,6,0,0,0,0
2.142444,-709.156000,-77.940757,-663.315219,-846.990631,-627.741232,-212.916513,-929.930121,0,6,0,0,0,0
2.146426,-711.263000,-78.846586,-659.729573,-854.491160,-625.358447,-213.824143,-921.852155,0,6,0,0,0,0
2.150427,-702.835000,-75.223269,-656.394993,-843.366396,-607.052920,-197.000550,-897.847148,0,6,0,0,0,0
2.154398,-694.407000,-69.197611,-651.861962,-837.335520,-598.624920,-198.767198,-880.132855,0,6,0,0,0,0
2.158412,-707.049000,-68.326440,-662.406671,-843.085788,-617.552619,-214.707467,-907.453189,0,6,0,0,0,0
2.162384,-707.952000,-72.832952,-659.414703,-837.097057,-613.666515,-205.715661,-908.056631,0,6,0,0,0,0
2.166367,-709.156000,-80.042806,-659.719864,-834.705371,-616.666429,-201.222652,-912.555767,0,6,0,0,0,0
2.170360,-703.136000,-70.419294,-650.703735,-837.674586,-611.544386,-213.193207,-893.654780,0,6,0,0,0,0
2.174369,-707.049000,-74.032001,-658.212090,-840.688664,-615.457386,-222.203531,-916.739482,0,6,0,0,0,0
2.178337,-706.447000,-75.532050,-658.508929,-841.884507,-614.855386,-225.199643,-917.335713,0,6,0,0,0,0
2.182348,-696.213000,-79.111514,-652.469510,-838.542239,-603.424110,-217.964068,-900.810998,0,6,0,0,0,0
2.186329,-709.156000,-84.246904,-660.019477,-842.496024,-608.884135,-217.114309,-912.555767,0,6,0,0,0,0
2.190307,-714.875000,-80.957123,-660.944670,-838.326887,-626.575895,-208.740708,-911.384937,0,6,0,0,0,0
2.194315,-708.554000,-69.531147,-653.125605,-833.504090,-613.370558,-200.320809,-914.649788,0,6,0,0,0,0
2.198288,-705.845000,-63.218635,-651.015831,-829.896168,-613.355429,-187.117319,-905.650073,0,6,0,0,0,0
2.202277,-705.544000,-66.821440,-649.516379,-831.992292,-618.741490,-189.215059,-896.661896,0,6,0,0,0,0
2.206265,-701.029000,-62.907025,-656.386671,-832.870821,-616.022404,-191.596439,-906.525672,0,6,0,0,0,0
2.210271,-705.845000,-62.317757,-657.008090,-836.188619,-623.831594,-186.817476,-925.720448,0,6,0,0,0,0
2.214337,-692.902000,-61.987050,-646.461993,-824.444181,-604.902214,-180.471013,-896.601325,0,6,0,0,0,0
2.218250,-704.942000,-62.916220,-655.805477,-834.686338,-630.411569,-185.314791,-909.240441,0,6,0,0,0,0
2.222255,-705.243000,-68.322196,-660.900284,-837.983743,-622.331637,-188.014532,-920.025965,0,6,0,0,0,0
2.226214,-704.942000,-71.925001,-664.194639,-841.877710,-618.738128,-196.109124,-926.614795,0,6,0,0,0,0
2.230209,-710.059000,-69.834976,-661.222090,-840.702259,-620.263300,-185.034624,-910.163631,0,6,0,0,0,0
2.234187,-716.079000,-77.356440,-668.140929,-838.332325,-625.086024,-179.060921,-920.976556,0,6,0,0,0,0
2.238179,-718.788000,-78.263684,-669.951090,-839.543123,-627.795024,-175.173384,-925.183345,0,6,0,0,0,0
2.242169,-712.768000,-73.745147,-670.222962,-838.617011,-619.679791,-176.349606,-917.965114,0,6,0,0,0,0
2.246178,-709.156000,-72.835781,-666.610962,-840.398540,-615.768472,-180.233671,-918.247366,0,6,0,0,0,0
2.250151,-706.748000,-70.127489,-663.903349,-834.694495,-609.768644,-174.227560,-917.936271,0,6,0,0,0,0
2.254149,-708.253000,-66.527513,-658.217638,-824.513515,-616.062748,-155.343263,-913.150556,0,6,0,0,0,0
2.258131,-701.631000,-67.112537,-650.397186,-821.187561,-607.644834,-149.021106,-894.246685,0,6,0,0,0,0
2.262119,-702.233000,-63.810732,-649.201509,-821.190280,-614.532533,-152.621532,-899.941168,0,6,0,0,0,0
2.266102,-703.738000,-56.306952,-656.399155,-831.384854,-614.540938,-187.109217,-917.921849,0,6,0,0,0,0
2.270088,-692.300000,-58.081830,-646.758832,-825.040743,-589.034945,-166.376097,-901.091808,0,6,0,0,0,0
2.274080,-681.163000,-61.959465,-640.415639,-828.586127,-569.517013,-169.931383,-893.549502,0,6,0,0,0,0
2.278075,-696.514000,-67.100513,-650.373606,-834.048991,-596.541454,-179.885217,-926.274856,0,6,0,0,0,0
2.282068,-720.594000,-72.262073,-668.161735,-844.045887,-649.954716,-194.070411,-958.143360,0,6,0,0,0,0
2.286045,-721.798000,-76.469000,-663.972702,-840.155999,-645.172336,-183.880393,-943.470795,0,6,0,0,0,0
2.290037,-709.457000,-77.040586,-657.923573,-834.706730,-619.361981,-179.035458,-927.535101,0,6,0,0,0,0
2.294030,-701.330000,-67.412123,-652.193477,-826.280090,-609.139748,-167.610189,-909.522692,0,6,0,0,0,0
2.298015,-696.815000,-65.599757,-645.880799,-818.768685,-604.325429,-162.195661,-904.408577,0,6,0,0,0,0
2.302032,-715.176000,-74.651684,-660.646444,-831.736156,-621.489153,-191.950680,-913.183726,0,6,0,0,0,0
2.305991,-714.875000,-71.948342,-658.547766,-826.940548,-614.303816,-179.955819,-912.882726,0,6,0,0,0,0
2.310032,-716.079000,-77.056147,-660.350992,-829.942391,-625.983981,-179.360763,-929.963291,0,6,0,0,0,0
2.314113,-716.380000,-77.357147,-661.550831,-829.344470,-621.795196,-179.661763,-925.471366,0,6,0,0,0,0
2.318003,-716.982000,-82.763830,-661.253992,-829.047548,-619.703325,-195.855578,-929.068944,0,6,0,0,0,0
2.321957,-715.778000,-84.863050,-662.746509,-825.446424,-620.295239,-184.756773,-922.472903,0,6,0,0,0,0
2.326015,-710.360000,-77.943586,-657.927735,-820.328065,-620.863619,-185.035782,-919.151808,0,6,0,0,0,0
2.329933,-700.728000,-71.014220,-654.587606,-814.291751,-613.326852,-181.700476,-912.215829,0,6,0,0,0,0
2.334190,-700.126000,-67.709586,-649.791025,-813.989391,-612.126214,-173.902254,-908.618250,0,6,0,0,0,0
2.337911,-692.902000,-69.494367,-643.765477,-806.765391,-605.800171,-150.186911,-904.090271,0,6,0,0,0,0
2.341898,-690.795000,-77.597319,-641.358864,-816.044730,-598.305429,-169.368735,-909.771774,0,6,0,0,0,0
2.345913,-694.407000,-79.707855,-648.566219,-828.046664,-593.536497,-203.264837,-918.775815,0,6,0,0,0,0
2.349876,-692.300000,-79.102319,-644.062316,-821.744697,-594.123368,-180.168856,-908.281196,0,6,0,0,0,0
2.353878,-696.815000,-80.914684,-651.873058,-825.660416,-611.209766,-181.385587,-921.782931,0,6,0,0,0,0
2.357876,-693.203000,-78.804148,-652.156026,-823.846259,-609.992318,-171.776735,-907.686407,0,6,0,0,0,0
2.361862,-698.019000,-78.515172,-659.069317,-832.257945,-601.338963,-194.283448,-917.295332,0,6,0,0,0,0
2.365837,-688.688000,-76.691489,-651.236382,-826.822272,-585.422945,-184.052920,-896.281577,0,6,0,0,0,0
2.369823,-683.872000,-76.680173,-648.817285,-826.500879,-585.396049,-180.436291,-896.258502,0,6,0,0,0,0
2.373814,-694.106000,-74.301879,-652.759414,-827.146383,-602.813705,-182.574541,-902.897808,0,6,0,0,0,0
2.378158,-712.768000,-72.243684,-666.627606,-838.017730,-629.257999,-188.942995,-931.744774,0,6,0,0,0,0
2.382136,-718.788000,-76.161635,-663.359605,-831.153189,-641.264379,-179.371180,-928.478482,0,6,0,0,0,0
2.386115,-707.049000,-73.431415,-659.110929,-831.100168,-612.164877,-192.818958,-898.766012,0,6,0,0,0,0
2.390103,-710.059000,-74.039074,-661.222090,-830.214842,-614.576239,-191.631161,-908.366284,0,6,0,0,0,0
2.394096,-710.661000,-66.533171,-659.427186,-830.816842,-619.668024,-183.837569,-925.743523,0,6,0,0,0,0
2.398083,-703.738000,-63.513976,-654.601477,-824.193482,-613.942300,-177.814097,-914.027597,0,6,0,0,0,0
2.402098,-704.340000,-70.422123,-655.503090,-824.495842,-613.646343,-176.017356,-913.730924,0,6,0,0,0,0
2.406081,-704.039000,-57.809122,-656.999768,-828.389809,-614.841938,-194.306596,-924.813121,0,6,0,0,0,0
2.410056,-694.708000,-60.489830,-653.061801,-824.152697,-604.014343,-187.974022,-913.684774,0,6,0,0,0,0
2.414042,-704.641000,-62.314927,-657.002542,-824.497201,-627.416698,-183.214735,-930.208047,0,6,0,0,0,0
2.418031,-697.417000,-67.402928,-647.082025,-814.276796,-613.308361,-161.298448,-917.891563,0,6,0,0,0,0
2.422019,-700.427000,-64.407074,-650.990864,-818.185718,-623.502017,-180.499948,-926.593162,0,6,0,0,0,0
2.426008,-691.999000,-62.885806,-641.064799,-811.555561,-612.080827,-170.572735,-905.583733,0,6,0,0,0,0
2.430173,-696.213000,-57.490440,-647.675703,-818.466325,-618.689379,-178.384846,-937.956169,0,6,0,0,0,0
2.433994,-688.387000,-57.171757,-639.849703,-811.239606,-606.373594,-165.761365,-908.562006,0,6,0,0,0,0
2.437987,-691.999000,-59.582586,-653.948156,-826.237945,-604.897171,-195.159828,-930.447033,0,6,0,0,0,0
2.442023,-688.086000,-58.372220,-647.039026,-822.624586,-596.793705,-173.256272,-912.454815,0,6,0,0,0,0
2.445978,-699.223000,-59.299269,-657.576801,-828.667697,-618.107551,-179.595791,-924.490489,0,6,0,0,0,0
2.449956,-697.718000,-52.389000,-653.674897,-822.668090,-624.384845,-172.693624,-930.174877,0,6,0,0,0,0
2.453940,-702.835000,-53.301903,-657.293832,-827.185809,-635.188906,-172.113615,-924.208237,0,6,0,0,0,0
2.457950,-701.631000,-52.998781,-661.782478,-825.682168,-618.420318,-173.908041,-927.797162,0,6,0,0,0,0
2.462087,-708.855000,-65.928342,-668.107639,-835.003652,-630.134103,-180.832198,-936.219394,0,6,0,0,0,0
2.465961,-694.106000,-64.392220,-659.350898,-828.045305,-601.616429,-163.684458,-907.990291,0,6,0,0,0,0
2.469898,-693.805000,-67.094147,-662.046028,-828.643226,-605.206576,-158.885819,-904.094597,0,6,0,0,0,0
2.473876,-706.748000,-68.926318,-674.389802,-836.791978,-621.442085,-170.029763,-909.249094,0,6,0,0,0,0
2.477999,-701.631000,-68.614001,-673.167770,-835.570305,-619.617594,-170.010087,-913.717944,0,6,0,0,0,0
2.481859,-724.808000,-81.581049,-690.951737,-850.357371,-644.291189,-187.190236,-974.040115,0,6,0,0,0,0
2.485862,-708.554000,-80.942269,-676.795028,-835.301933,-618.758300,-173.634819,-922.438291,0,6,0,0,0,0
2.489852,-693.203000,-78.203562,-662.942092,-822.048416,-588.740669,-160.382717,-908.285523,0,6,0,0,0,0
2.493827,-697.417000,-85.120197,-665.957641,-821.767809,-609.117895,-159.499393,-924.481836,0,6,0,0,0,0
2.497823,-707.350000,-85.744123,-669.898382,-828.404763,-634.016845,-169.132550,-935.912625,0,6,0,0,0,0
2.501837,-696.815000,-84.518197,-662.958737,-822.963652,-624.978440,-154.999439,-916.091332,0,6,0,0,0,0
2.505808,-703.136000,-90.538904,-670.178576,-831.681776,-631.598759,-169.716032,-934.394645,0,6,0,0,0,0
2.509801,-696.815000,-84.518197,-658.764156,-819.967247,-623.481845,-161.895819,-931.368782,0,6,0,0,0,0
2.513775,-695.912000,-80.612270,-655.464252,-817.566044,-619.286336,-163.991245,-925.672856,0,6,0,0,0,0
2.517783,-691.698000,-76.998855,-652.149091,-812.453123,-613.276422,-155.279606,-924.753992,0,6,0,0,0,0
2.521748,-677.551000,-71.860636,-641.297834,-802.201449,-591.347128,-144.430874,-902.219373,0,6,0,0,0,0
2.525749,-678.454000,-70.961880,-635.609349,-795.913077,-588.358981,-132.140800,-898.329448,0,6,0,0,0,0
2.529731,-689.892000,-71.589343,-640.156251,-799.860065,-614.463612,-130.685569,-910.067006,0,6,0,0,0,0
2.533736,-695.009000,-80.910441,-648.868606,-807.673829,-622.573802,-142.099263,-921.774278,0,6,0,0,0,0
2.537707,-678.153000,-77.867905,-644.596350,-807.298057,-585.663429,-146.532087,-907.015183,0,6,0,0,0,0
2.541699,-683.872000,-77.581051,-643.424252,-804.627123,-609.640888,-129.163208,-914.231972,0,6,0,0,0,0
2.545692,-700.126000,-75.517196,-656.981736,-814.289032,-639.962881,-140.020041,-920.301006,0,6,0,0,0,0
2.549698,-686.280000,-70.379684,-649.727221,-812.728292,-615.640716,-139.367115,-913.344836,0,6,0,0,0,0
2.553662,-696.815000,-66.200342,-662.359511,-819.068325,-622.284569,-164.594402,-934.364360,0,6,0,0,0,0
2.557657,-701.330000,-71.015635,-669.571028,-821.785482,-633.384587,-155.316643,-930.791298,0,6,0,0,0,0
2.561665,-686.581000,-62.572782,-659.615835,-811.531090,-601.574404,-149.862763,-909.452026,0,6,0,0,0,0
2.565631,-685.678000,-65.873879,-659.012448,-810.927730,-593.487748,-151.658347,-900.460965,0,6,0,0,0,0
2.569619,-691.698000,-69.191245,-664.433222,-816.048809,-617.766207,-151.081810,-912.172563,0,6,0,0,0,0
2.573611,-695.912000,-69.201147,-668.946835,-818.764606,-624.674078,-148.099587,-926.571530,0,6,0,0,0,0
2.577609,-702.835000,-67.115367,-675.869835,-828.384371,-633.392992,-147.226680,-938.587013,0,6,0,0,0,0
2.581602,-679.357000,-61.955221,-662.878288,-817.491272,-595.846999,-136.042226,-889.646597,0,6,0,0,0,0
2.585581,-685.377000,-68.275514,-670.396353,-826.807317,-606.356784,-136.665060,-920.529897,0,6,0,0,0,0
2.589574,-690.193000,-73.692099,-672.815449,-829.825474,-611.771422,-147.178069,-927.742360,0,6,0,0,0,0
2.593603,-685.377000,-74.581660,-667.400223,-820.814507,-608.152698,-143.561439,-910.944047,0,6,0,0,0,0
2.597571,-686.882000,-69.179928,-665.609481,-816.326697,-600.977447,-139.669273,-915.145067,0,6,0,0,0,0
2.601539,-681.765000,-66.465270,-660.792094,-812.707900,-595.561128,-136.351328,-926.204190,0,6,0,0,0,0
2.605524,-693.203000,-73.398879,-668.035513,-824.145900,-606.999128,-154.385865,-942.435115,0,6,0,0,0,0
2.609517,-688.688000,-73.087977,-665.617803,-822.028024,-607.871870,-152.269606,-922.942224,0,6,0,0,0,0
2.613504,-683.872000,-68.271977,-662.599481,-816.313102,-608.443612,-139.957541,-916.628435,0,6,0,0,0,0
2.617490,-691.698000,-64.686855,-663.534383,-816.648090,-625.847820,-143.585745,-918.163720,0,6,0,0,0,0
2.621495,-690.494000,-65.885196,-667.723416,-818.740135,-627.337691,-148.678439,-931.937612,0,6,0,0,0,0
2.625476,-679.056000,-63.155684,-656.585029,-809.399619,-605.124207,-145.336189,-912.711108,0,6,0,0,0,0
2.629481,-657.384000,-56.498319,-638.807997,-794.918991,-569.683533,-118.866708,-868.871829,0,6,0,0,0,0
2.633465,-661.297000,-51.402538,-640.324094,-798.232710,-576.290404,-130.875458,-887.463162,0,6,0,0,0,0
2.637446,-694.407000,-60.188830,-669.838738,-818.757809,-629.155458,-162.786087,-941.841768,0,6,0,0,0,0
2.641452,-684.173000,-56.861562,-660.803190,-810.920933,-610.839845,-139.958699,-917.828108,0,6,0,0,0,0
2.645445,-692.902000,-54.479732,-664.139157,-813.956763,-630.942967,-144.190060,-937.041632,0,6,0,0,0,0
2.649414,-694.407000,-55.384147,-667.441835,-825.649540,-615.386784,-169.682467,-944.238231,0,6,0,0,0,0
2.653399,-697.417000,-59.595318,-671.949900,-825.363495,-621.689293,-175.990735,-934.966360,0,6,0,0,0,0
2.657397,-698.320000,-68.606220,-672.553287,-824.169011,-621.395017,-173.295624,-935.869360,0,6,0,0,0,0
2.661446,-693.805000,-67.394440,-667.139448,-819.953652,-612.390232,-157.986291,-927.460108,0,6,0,0,0,0
2.665373,-686.581000,-66.176294,-664.409642,-814.227854,-605.764870,-155.259930,-913.046720,0,6,0,0,0,0
2.669369,-680.260000,-69.164368,-659.886320,-812.401462,-590.763619,-159.733263,-900.734563,0,6,0,0,0,0
2.673347,-683.270000,-70.672904,-666.192062,-819.606429,-606.345017,-161.843735,-918.722455,0,6,0,0,0,0
2.677336,-691.698000,-68.590660,-664.732835,-818.445933,-616.868250,-162.175985,-923.855319,0,6,0,0,0,0
2.681324,-685.076000,-66.473050,-663.204255,-816.018900,-589.293920,-174.444069,-907.347910,0,6,0,0,0,0
2.685357,-689.591000,-67.084245,-664.423513,-816.338933,-595.006196,-167.265208,-917.554509,0,6,0,0,0,0
2.689326,-702.233000,-72.218928,-671.073254,-823.887044,-634.586906,-174.510041,-931.394741,0,6,0,0,0,0
2.693295,-700.126000,-72.814562,-674.958513,-825.975011,-628.588759,-175.401467,-930.186414,0,6,0,0,0,0
2.697295,-701.932000,-71.617635,-675.865674,-823.885685,-636.081820,-169.411560,-936.186224,0,6,0,0,0,0
2.701278,-707.651000,-73.733123,-679.786996,-829.005404,-631.923293,-170.632921,-944.002129,0,6,0,0,0,0
2.705266,-685.076000,-74.881246,-670.694579,-821.112788,-587.198687,-169.646587,-907.947026,0,6,0,0,0,0
2.709250,-689.290000,-73.689977,-674.009740,-826.824991,-603.385447,-180.756967,-926.839360,0,6,0,0,0,0
2.713246,-700.126000,-70.712513,-674.958513,-826.274652,-631.881268,-176.300995,-927.789951,0,6,0,0,0,0
2.717226,-697.718000,-71.007147,-672.550513,-824.465933,-625.881440,-177.491106,-911.003176,0,6,0,0,0,0
2.721231,-691.096000,-71.291879,-665.628900,-818.143573,-609.082594,-172.368319,-922.354645,0,6,0,0,0,0
2.725206,-691.096000,-71.892465,-666.228126,-818.143573,-610.579189,-170.269421,-906.178523,0,6,0,0,0,0
2.729220,-690.795000,-69.189123,-665.028287,-815.145809,-612.373422,-166.370310,-913.066910,0,6,0,0,0,0
2.733184,-709.156000,-69.532562,-679.494318,-823.918313,-636.720802,-168.839652,-949.401380,0,6,0,0,0,0
2.737196,-696.815000,-63.497708,-665.655254,-810.678391,-628.270949,-156.798495,-923.580278,0,6,0,0,0,0
2.741181,-700.126000,-72.814562,-667.767802,-819.682561,-627.092164,-185.296272,-930.785530,0,6,0,0,0,0
2.745173,-697.417000,-74.910245,-670.451835,-822.666730,-622.587250,-184.086485,-937.961938,0,6,0,0,0,0
2.749156,-689.892000,-65.883782,-665.024126,-820.834900,-604.885404,-189.754559,-907.970101,0,6,0,0,0,0
2.753129,-695.310000,-57.488318,-664.150254,-817.563325,-625.269354,-189.175708,-924.172183,0,6,0,0,0,0
2.757188,-696.213000,-58.391318,-662.955963,-813.072796,-621.383250,-182.882485,-929.268992,0,6,0,0,0,0
2.761151,-694.708000,-57.787196,-660.851737,-806.773548,-623.470078,-160.088661,-928.363108,0,6,0,0,0,0
2.765108,-686.280000,-57.166806,-657.816770,-812.129011,-598.280214,-179.246180,-914.243509,0,6,0,0,0,0
2.769089,-678.454000,-56.848123,-651.788448,-809.696540,-590.753533,-176.817346,-918.100265,0,6,0,0,0,0
2.773079,-679.959000,-53.848733,-647.301189,-802.811606,-607.823121,-164.829430,-919.605265,0,6,0,0,0,0
2.777067,-686.280000,-56.566220,-654.820641,-806.136201,-614.144121,-185.243032,-932.216979,0,6,0,0,0,0
2.781062,-702.835000,-53.301903,-668.978737,-819.095515,-636.386182,-190.404013,-940.683918,0,6,0,0,0,0
2.785047,-698.922000,-46.986561,-664.466511,-819.677123,-621.099060,-181.993374,-934.074897,0,6,0,0,0,0
2.789038,-698.019000,-52.690000,-665.660802,-821.470887,-624.386526,-188.886282,-931.973666,0,6,0,0,0,0
2.793031,-686.581000,-51.161659,-664.409642,-815.126776,-609.656017,-177.748124,-923.830802,0,6,0,0,0,0
2.797052,-686.882000,-52.663830,-660.516061,-811.832090,-604.569275,-174.151171,-907.057006,0,6,0,0,0,0
2.801008,-695.009000,-59.289367,-669.242287,-821.157652,-621.376526,-166.986198,-924.170741,0,6,0,0,0,0
2.804990,-693.805000,-70.097074,-669.536351,-827.744305,-620.471845,-185.271967,-926.561435,0,6,0,0,0,0
2.809026,-689.290000,-68.585001,-664.122513,-818.734697,-613.562293,-173.560745,-919.949530,0,6,0,0,0,0
2.812985,-685.678000,-59.267440,-662.008577,-816.620900,-614.140759,-171.747800,-916.337530,0,6,0,0,0,0
2.816967,-685.377000,-56.263806,-662.306803,-813.323495,-611.744526,-168.748217,-905.252448,0,6,0,0,0,0
2.820967,-676.648000,-55.042123,-657.472771,-813.583710,-595.532551,-170.513708,-895.025659,0,6,0,0,0,0
2.824940,-670.026000,-44.516318,-655.644579,-809.358834,-577.536429,-163.591865,-894.095257,0,6,0,0,0,0
2.828938,-660.695000,-42.392343,-651.706612,-806.619925,-567.008153,-162.956300,-871.883271,0,6,0,0,0,0
2.832984,-667.919000,-53.219855,-653.837192,-806.053272,-589.497422,-157.886754,-880.605060,0,6,0,0,0,0
2.836910,-696.213000,-70.403026,-679.734288,-827.455540,-636.049881,-195.176032,-909.198618,0,6,0,0,0,0
2.840895,-693.805000,-69.796782,-672.832094,-824.148619,-626.757544,-183.472911,-912.182659,0,6,0,0,0,0
2.844902,-701.631000,-77.322489,-684.852675,-833.772462,-625.903293,-196.096393,-955.356483,0,6,0,0,0,0
2.848894,-694.708000,-66.795977,-674.334320,-823.853057,-607.306852,-185.275439,-942.142768,0,6,0,0,0,0
2.852868,-697.718000,-61.397781,-672.550513,-816.974920,-631.568501,-168.495828,-937.963380,0,6,0,0,0,0
2.856853,-699.825000,-49.991610,-677.653642,-822.078325,-642.355752,-180.497634,-953.550483,0,6,0,0,0,0
2.860870,-680.862000,-43.941196,-662.285997,-812.104540,-601.841784,-189.719837,-915.415782,0,6,0,0,0,0
2.864835,-691.999000,-35.258878,-664.434609,-813.053763,-627.645415,-184.965180,-940.632000,0,6,0,0,0,0
2.868833,-697.116000,-43.378805,-668.652770,-815.174358,-636.653562,-183.785485,-929.572877,0,6,0,0,0,0
2.872816,-701.932000,-56.903293,-674.966835,-824.185325,-639.075010,-188.901328,-951.463673,0,6,0,0,0,0
2.876806,-697.116000,-64.399294,-668.353157,-819.069685,-629.469906,-181.686587,-929.273319,0,6,0,0,0,0
2.880791,-696.213000,-72.204782,-676.738159,-821.163090,-627.968268,-181.982958,-941.550863,0,6,0,0,0,0
2.884787,-684.775000,-64.970879,-665.000546,-816.317181,-603.659551,-174.143069,-915.734088,0,6,0,0,0,0
2.888768,-684.775000,-54.460635,-666.798223,-819.313586,-605.156146,-187.036300,-921.425686,0,6,0,0,0,0
2.892795,-694.106000,-54.182269,-668.938513,-816.958606,-627.657182,-181.375171,-924.166414,0,6,0,0,0,0
2.896768,-683.571000,-49.052537,-657.205061,-805.824325,-613.829673,-174.738124,-922.618149,0,6,0,0,0,0
2.900797,-694.106000,-51.179342,-661.747802,-808.269032,-630.949691,-165.483513,-933.153149,0,6,0,0,0,0
2.904729,-689.591000,-52.369903,-656.633576,-799.259424,-616.856483,-149.274652,-918.752741,0,6,0,0,0,0
2.908869,-684.474000,-58.363733,-658.407674,-794.442065,-612.338121,-135.762060,-901.952985,0,6,0,0,0,0
2.912839,-694.708000,-63.793050,-669.840126,-811.867437,-624.068716,-181.377485,-914.583448,0,6,0,0,0,0
2.916697,-696.815000,-69.803855,-671.048287,-817.270482,-623.781164,-189.781180,-924.778509,0,6,0,0,0,0
2.920679,-691.096000,-69.490123,-665.628900,-810.053280,-613.572379,-171.468791,-924.751108,0,6,0,0,0,0
2.924675,-690.494000,-66.185489,-667.723416,-808.552358,-621.650630,-166.668995,-916.360604,0,6,0,0,0,0
2.928667,-686.882000,-55.366464,-659.617222,-799.846470,-615.943397,-151.063291,-915.145067,0,6,0,0,0,0
2.932659,-682.066000,-55.355147,-654.501609,-801.922201,-602.447146,-178.030606,-917.818013,0,6,0,0,0,0
2.936651,-675.444000,-48.733147,-646.980770,-798.296606,-597.920379,-172.008291,-900.411931,0,6,0,0,0,0
2.940648,-677.852000,-51.141147,-651.486061,-798.307482,-597.035870,-164.521485,-912.106224,0,6,0,0,0,0
2.944633,-688.387000,-57.772342,-661.122222,-806.744999,-618.047035,-169.359476,-936.720442,0,6,0,0,0,0
2.948623,-689.892000,-58.376464,-657.234189,-801.058627,-631.524795,-158.870773,-918.454625,0,6,0,0,0,0
2.952596,-685.979000,-60.769611,-658.414609,-800.741313,-617.434949,-164.552735,-911.546047,0,6,0,0,0,0
2.956663,-689.892000,-68.286123,-663.526061,-806.452156,-612.667698,-177.161171,-905.873196,0,6,0,0,0,0
2.960579,-672.434000,-60.437489,-647.865738,-795.586247,-592.515827,-160.302856,-888.415196,0,6,0,0,0,0
2.964577,-680.561000,-54.150440,-657.490803,-805.511090,-607.826483,-172.027967,-917.211686,0,6,0,0,0,0
2.968562,-685.979000,-49.959074,-665.006094,-808.831606,-620.428139,-171.149272,-935.211115,0,6,0,0,0,0
2.972560,-676.949000,-43.932001,-661.069514,-809.090462,-608.105630,-172.913606,-929.476251,0,6,0,0,0,0
2.976538,-665.812000,-38.500562,-652.029805,-800.949867,-585.594508,-164.175346,-903.061802,0,6,0,0,0,0
2.980524,-677.551000,-46.335757,-658.974997,-805.197854,-604.517164,-165.120013,-921.391074,0,6,0,0,0,0
2.984511,-690.193000,-56.875708,-666.823190,-809.449920,-636.315580,-165.768310,-930.737938,0,6,0,0,0,0
2.988500,-679.056000,-55.047782,-656.585029,-807.601776,-604.824888,-155.530837,-904.623047,0,6,0,0,0,0
2.992516,-676.648000,-55.042123,-658.371610,-800.699168,-590.444128,-147.125985,-908.206203,0,6,0,0,0,0
2.996486,-687.484000,-61.974318,-662.616126,-805.242718,-616.246078,-152.564819,-926.830707,0,6,0,0,0,0
3.000483,-693.805000,-67.394440,-668.038287,-815.758685,-632.743924,-166.082041,-943.336673,0,6,0,0,0,0
3.004457,-677.852000,-59.549343,-647.890705,-799.805685,-606.314759,-156.425735,-910.907992,0,6,0,0,0,0
3.008449,-673.337000,-55.334636,-654.461384,-803.980259,-604.493630,-177.097513,-923.168231,0,6,0,0,0,0
3.012459,-682.066000,-56.856611,-655.400448,-806.716449,-619.807648,-176.231550,-929.800326,0,6,0,0,0,0
3.016425,-658.287000,-45.389611,-640.310223,-792.825586,-574.178361,-176.439957,-921.298775,0,6,0,0,0,0
3.020412,-660.996000,-45.395977,-636.128126,-791.339619,-588.860121,-171.053207,-918.915292,0,6,0,0,0,0
3.024407,-670.628000,-46.619782,-643.063609,-794.079887,-617.648537,-177.686781,-918.961442,0,6,0,0,0,0
3.028487,-678.153000,-44.535415,-652.086674,-801.904528,-622.479666,-193.007689,-941.763891,0,6,0,0,0,0
3.032395,-673.939000,-52.933709,-649.071126,-803.383697,-609.585415,-194.490698,-931.558734,0,6,0,0,0,0
3.036376,-670.327000,-64.936929,-650.852159,-803.966664,-603.878182,-202.872402,-929.444524,0,6,0,0,0,0
3.040380,-668.822000,-67.936319,-644.852964,-801.862383,-602.373182,-202.866615,-919.252347,0,6,0,0,0,0
3.044373,-660.093000,-68.516393,-644.812740,-799.126193,-580.474146,-214.826753,-917.712734,0,6,0,0,0,0
3.048359,-659.792000,-70.317441,-643.912514,-800.023755,-581.071103,-232.516309,-916.513061,0,6,0,0,0,0
3.052344,-663.404000,-73.328856,-645.127610,-800.938991,-596.356544,-250.220911,-920.424619,0,6,0,0,0,0
3.056325,-673.337000,-70.949856,-649.367964,-801.882776,-615.568433,-249.659420,-949.828878,0,6,0,0,0,0
3.060324,-663.705000,-64.921368,-640.634803,-796.146102,-601.446648,-249.322540,-930.910585,0,6,0,0,0,0
3.064300,-670.327000,-69.441319,-649.354094,-800.670619,-609.265924,-256.244383,-930.642755,0,6,0,0,0,0
3.068304,-674.541000,-70.952685,-651.470803,-800.390011,-609.588777,-257.759799,-935.156313,0,6,0,0,0,0
3.072283,-669.725000,-67.037563,-647.853255,-800.368259,-595.793207,-257.141596,-924.049598,0,6,0,0,0,0
3.076268,-684.474000,-64.970172,-660.804577,-811.821214,-615.031992,-278.786975,-964.860130,0,6,0,0,0,0
3.080265,-679.658000,-71.265002,-660.482771,-817.792272,-613.209182,-280.567512,-941.471544,0,6,0,0,0,0
3.084259,-675.143000,-76.659661,-658.664288,-817.771879,-606.598949,-279.050938,-934.859639,0,6,0,0,0,0
3.088232,-672.735000,-71.849319,-660.151256,-817.761003,-589.524318,-274.544040,-938.143238,0,6,0,0,0,0
3.092242,-665.511000,-70.931466,-657.421450,-816.529813,-585.592827,-281.712484,-933.016143,0,6,0,0,0,0
3.096234,-682.066000,-80.279441,-667.984192,-823.196677,-618.311053,-291.371105,-950.469816,0,6,0,0,0,0
3.100200,-670.929000,-74.848002,-658.045643,-815.355722,-598.194483,-285.931114,-924.954041,0,6,0,0,0,0
3.104205,-674.240000,-71.852856,-657.461675,-812.074631,-603.900035,-278.747623,-946.238510,0,6,0,0,0,0
3.108190,-670.026000,-67.038270,-656.243805,-812.055598,-604.175820,-300.919771,-942.923184,0,6,0,0,0,0
3.112194,-668.822000,-63.732221,-651.144836,-805.158429,-596.686121,-283.524271,-916.256768,0,6,0,0,0,0
3.116156,-673.337000,-72.451319,-655.659836,-810.272710,-591.622913,-284.441160,-929.758503,0,6,0,0,0,0
3.120163,-678.454000,-75.165978,-660.177610,-816.887912,-600.331741,-297.653910,-929.183904,0,6,0,0,0,0
3.124202,-673.939000,-68.849221,-657.759901,-814.170755,-587.435809,-297.936392,-921.074210,0,6,0,0,0,0
3.128154,-685.678000,-72.480319,-667.401610,-817.220181,-609.650974,-298.581216,-949.888007,0,6,0,0,0,0
3.132136,-679.658000,-65.259148,-658.984707,-813.896945,-606.624164,-298.258225,-940.273313,0,6,0,0,0,0
3.136104,-667.618000,-63.729392,-649.041997,-804.853350,-578.420938,-302.709568,-910.858959,0,6,0,0,0,0
3.140105,-675.745000,-62.547319,-650.877126,-806.687900,-604.507078,-301.241605,-936.360313,0,6,0,0,0,0
3.144092,-682.367000,-67.667855,-654.203383,-808.815292,-617.115458,-301.267068,-938.488945,0,6,0,0,0,0
3.148078,-670.026000,-62.233587,-647.555029,-807.261350,-590.706465,-312.313790,-928.843966,0,6,0,0,0,0
3.152066,-670.929000,-60.133660,-652.053384,-804.868305,-595.500612,-302.422456,-929.746966,0,6,0,0,0,0
3.156052,-675.745000,-59.544392,-649.678674,-803.092214,-599.418655,-290.747114,-927.373578,0,6,0,0,0,0
3.160047,-668.822000,-49.618465,-646.950255,-801.562743,-581.420852,-296.717345,-912.961632,0,6,0,0,0,0
3.164049,-672.434000,-58.335441,-654.756836,-813.564677,-589.522637,-316.221003,-919.269653,0,6,0,0,0,0
3.168025,-672.133000,-60.737075,-655.055062,-814.462239,-590.119594,-319.518114,-921.365115,0,6,0,0,0,0
3.172008,-683.571000,-64.067172,-661.699255,-817.210664,-609.339888,-320.761466,-949.877912,0,6,0,0,0,0
3.176007,-675.444000,-61.645733,-653.572255,-809.383305,-592.233318,-307.836984,-921.680537,0,6,0,0,0,0
3.179989,-678.755000,-63.755562,-654.785964,-807.900057,-590.156576,-317.744521,-930.982694,0,6,0,0,0,0
3.183976,-669.123000,-56.826197,-639.461318,-798.268057,-575.735472,-302.415512,-914.161306,0,6,0,0,0,0
3.188012,-683.571000,-55.058391,-653.609705,-807.622168,-611.135802,-317.163355,-936.397809,0,6,0,0,0,0
3.191975,-685.076000,-56.863684,-646.425930,-802.235437,-617.729225,-308.473707,-933.409442,0,6,0,0,0,0
3.195967,-672.434000,-49.927245,-642.472705,-795.286606,-594.910379,-294.032651,-905.190435,0,6,0,0,0,0
3.199952,-667.919000,-48.715465,-643.350738,-799.461181,-584.408999,-319.501910,-909.362612,0,6,0,0,0,0
3.203926,-663.404000,-50.506611,-636.438835,-797.343305,-577.200128,-320.683919,-887.473257,0,6,0,0,0,0
3.207917,-680.260000,-53.849440,-652.695609,-806.109011,-611.416630,-322.547790,-929.791673,0,6,0,0,0,0
3.211909,-683.270000,-54.757391,-652.110254,-804.025123,-617.419820,-320.760308,-931.603442,0,6,0,0,0,0
3.215910,-661.899000,-54.707173,-637.630351,-788.946573,-574.797171,-300.888521,-904.540843,0,6,0,0,0,0
3.219903,-673.939000,-57.738392,-649.071126,-797.390887,-599.408569,-303.033716,-928.862714,0,6,0,0,0,0
3.223875,-674.842000,-59.542270,-644.281480,-795.896763,-601.808164,-292.542697,-928.267925,0,6,0,0,0,0
3.227867,-680.561000,-58.054245,-650.000480,-804.312528,-606.629207,-302.759336,-937.881177,0,6,0,0,0,0
3.231873,-680.862000,-59.856709,-652.398770,-807.609933,-600.644508,-310.556401,-940.878197,0,6,0,0,0,0
3.235836,-678.454000,-61.953099,-648.492705,-805.201933,-601.529017,-294.955327,-924.690537,0,6,0,0,0,0
3.239841,-669.123000,-64.033221,-648.449707,-806.657991,-586.810275,-310.211419,-914.760421,0,6,0,0,0,0
3.243836,-679.658000,-70.063831,-657.187029,-816.893350,-595.250042,-324.944216,-942.370218,0,6,0,0,0,0
3.247810,-683.270000,-73.375538,-654.806770,-815.111821,-597.365447,-321.060151,-940.889734,0,6,0,0,0,0
3.251806,-667.317000,-68.533368,-640.351835,-803.054148,-569.439687,-310.804160,-912.055748,0,6,0,0,0,0
3.255791,-668.521000,-67.635319,-637.061641,-800.962102,-577.228705,-308.110206,-912.061516,0,6,0,0,0,0
3.259783,-670.628000,-67.039685,-640.666705,-806.664788,-580.233662,-311.416577,-913.868959,0,6,0,0,0,0
3.263781,-680.260000,-65.560855,-652.096383,-817.195710,-597.348637,-318.949679,-940.875313,0,6,0,0,0,0
3.267759,-690.193000,-65.884489,-656.336737,-821.135900,-617.458483,-325.884253,-941.222462,0,6,0,0,0,0
3.271748,-676.648000,-57.744757,-646.387092,-810.587305,-596.131189,-299.745864,-922.285421,0,6,0,0,0,0
3.275736,-664.006000,-53.510953,-638.239287,-806.335239,-574.808938,-302.395836,-912.639000,0,6,0,0,0,0
3.279736,-674.541000,-60.142148,-652.070029,-814.173474,-589.534404,-324.924540,-922.874442,0,6,0,0,0,0
3.283712,-673.638000,-62.542368,-652.964707,-812.371553,-596.413698,-316.825318,-926.464809,0,6,0,0,0,0
3.287700,-688.086000,-65.278952,-661.120835,-818.129978,-614.453526,-317.180716,-952.895122,0,6,0,0,0,0
3.291698,-678.755000,-62.554392,-657.782094,-812.993945,-592.251809,-299.154281,-919.899054,0,6,0,0,0,0
3.295690,-667.919000,-69.435661,-650.841062,-809.948598,-567.347816,-302.410882,-913.256863,0,6,0,0,0,0
3.299668,-695.009000,-77.006636,-668.043835,-822.056573,-627.362906,-313.309383,-958.320333,0,6,0,0,0,0
3.303655,-688.387000,-72.186392,-656.927641,-813.037449,-611.162698,-297.692105,-934.024421,0,6,0,0,0,0
3.307648,-675.143000,-63.747075,-648.177835,-808.183383,-594.027551,-297.341336,-915.687938,0,6,0,0,0,0
3.311669,-662.200000,-52.906124,-638.830190,-800.933553,-570.009748,-289.495660,-900.648033,0,6,0,0,0,0
3.315631,-685.979000,-59.268147,-655.718092,-814.824416,-609.353336,-297.682846,-943.598734,0,6,0,0,0,0
3.319664,-678.755000,-57.449416,-654.186738,-808.798978,-588.659981,-288.359947,-933.379156,0,6,0,0,0,0
3.323722,-673.036000,-56.835392,-653.860771,-800.982495,-588.029404,-267.049133,-922.867231,0,6,0,0,0,0
3.327599,-683.270000,-60.162660,-655.405996,-804.924044,-608.739569,-266.188957,-933.700347,0,6,0,0,0,0
3.331592,-677.852000,-58.648465,-652.984126,-811.791305,-585.961067,-294.053484,-927.982789,0,6,0,0,0,0
3.335588,-681.765000,-69.768489,-655.698674,-813.606821,-602.744784,-291.070105,-937.287830,0,6,0,0,0,0
3.339571,-685.076000,-68.575099,-662.904642,-817.517102,-606.953741,-297.079688,-941.497503,0,6,0,0,0,0
3.343553,-691.096000,-73.093636,-666.827351,-821.739259,-611.177827,-295.303781,-946.618830,0,6,0,0,0,0
3.347543,-680.260000,-64.059392,-659.586707,-816.596429,-588.069748,-296.161642,-928.893000,0,6,0,0,0,0
3.351552,-684.775000,-61.067074,-664.101707,-819.013945,-601.264999,-290.781836,-931.610653,0,6,0,0,0,0
3.355527,-679.959000,-64.959562,-661.382997,-816.595069,-587.469429,-291.363003,-918.706591,0,6,0,0,0,0
3.359544,-682.367000,-66.166392,-662.892159,-818.104148,-591.673343,-303.365966,-926.806190,0,6,0,0,0,0
3.363513,-695.009000,-72.502245,-671.639190,-825.352619,-600.124877,-305.813318,-950.831388,0,6,0,0,0,0
3.367491,-682.668000,-67.968855,-658.698964,-814.210181,-588.083196,-285.076725,-923.212938,0,6,0,0,0,0
3.371497,-675.745000,-64.048782,-649.978287,-807.586821,-579.364282,-281.751836,-914.492591,0,6,0,0,0,0
3.375485,-676.046000,-64.349782,-653.874642,-811.483507,-573.978221,-299.443707,-911.498455,0,6,0,0,0,0
3.379474,-683.872000,-70.974611,-660.202577,-813.616338,-599.763361,-302.172383,-931.905884,0,6,0,0,0,0
3.383448,-689.591000,-69.486587,-662.925448,-814.241449,-600.992576,-302.794058,-935.228421,0,6,0,0,0,0
3.387134,-687.183000,-69.781221,-662.015513,-817.526619,-600.979128,-311.180392,-937.014231,0,6,0,0,0,0
3.391134,-683.872000,-65.869636,-662.899094,-816.612743,-592.280386,-318.663725,-937.897041,0,6,0,0,0,0
3.395126,-679.056000,-61.654221,-652.690061,-812.695664,-580.580049,-313.847725,-924.693421,0,6,0,0,0,0
3.399113,-683.270000,-65.868221,-657.802900,-814.512540,-588.984515,-309.965975,-910.334836,0,6,0,0,0,0
3.403086,-691.096000,-66.787489,-664.130835,-820.540697,-607.885318,-310.595753,-909.773216,0,6,0,0,0,0
3.407079,-687.484000,-69.181343,-663.215351,-821.722945,-588.110092,-319.277299,-929.526727,0,6,0,0,0,0
3.411080,-688.086000,-68.281879,-662.019674,-821.126383,-586.317540,-319.579456,-936.719000,0,6,0,0,0,0
3.415072,-684.775000,-57.763855,-655.113318,-814.519338,-595.877257,-312.970188,-922.923475,0,6,0,0,0,0
3.419045,-686.882000,-59.270269,-661.714513,-814.528854,-585.712178,-312.078762,-936.713231,0,6,0,0,0,0
3.423098,-683.270000,-64.667050,-662.596707,-820.205710,-581.501540,-317.761882,-933.700347,0,6,0,0,0,0
3.427025,-681.765000,-64.062928,-661.990546,-819.899272,-588.676791,-320.754521,-917.217455,0,6,0,0,0,0
3.431015,-697.417000,-66.502050,-672.249513,-832.854507,-613.906999,-333.408095,-947.547789,0,6,0,0,0,0
3.435000,-692.601000,-59.584001,-666.834287,-826.240664,-602.805300,-322.595244,-930.449918,0,6,0,0,0,0
3.439014,-686.280000,-60.169733,-665.307094,-824.114631,-594.688386,-322.570938,-932.516537,0,6,0,0,0,0
3.443000,-684.173000,-66.170636,-664.698159,-826.202598,-588.690239,-319.264568,-925.616612,0,6,0,0,0,0
3.446987,-681.765000,-77.275807,-663.188997,-825.292801,-579.397902,-312.658771,-923.508169,0,6,0,0,0,0
3.450973,-683.872000,-73.376953,-662.599481,-831.594768,-576.416479,-342.051447,-925.315612,0,6,0,0,0,0
3.454961,-691.096000,-77.297733,-667.426577,-834.923441,-599.803705,-338.780956,-927.147571,0,6,0,0,0,0
3.458940,-690.795000,-70.390294,-665.627513,-829.528553,-608.182956,-339.379484,-926.247455,0,6,0,0,0,0
3.463000,-679.357000,-69.462538,-660.181771,-825.881206,-576.391264,-333.338651,-914.210339,0,6,0,0,0,0
3.466916,-679.959000,-66.160733,-658.386868,-823.486801,-582.081687,-316.549781,-929.191115,0,6,0,0,0,0
3.470910,-685.678000,-62.870952,-662.907416,-822.014429,-596.181619,-314.472873,-936.407904,0,6,0,0,0,0
3.474908,-694.708000,-58.988367,-669.840126,-828.647305,-607.905490,-329.499725,-944.239673,0,6,0,0,0,0
3.478906,-705.544000,-70.124659,-683.372642,-838.884024,-620.238085,-343.034308,-960.767272,0,6,0,0,0,0
3.482981,-698.320000,-71.909440,-676.448255,-836.454272,-600.143368,-337.309521,-951.745925,0,6,0,0,0,0
3.486865,-696.213000,-77.309757,-672.543577,-828.654102,-598.635006,-327.706456,-937.057496,0,6,0,0,0,0
3.490868,-688.086000,-76.089489,-674.303805,-831.314160,-592.004601,-336.670484,-930.128727,0,6,0,0,0,0
3.494843,-676.046000,-72.757978,-665.259934,-824.368049,-576.971411,-328.828280,-920.485190,0,6,0,0,0,0
3.498836,-681.464000,-76.073929,-668.880256,-829.786049,-582.688730,-330.648169,-928.898768,0,6,0,0,0,0
3.502825,-675.444000,-66.450416,-663.759095,-825.563892,-566.192565,-325.527697,-926.773020,0,6,0,0,0,0
3.506812,-688.086000,-70.984514,-670.708449,-825.021710,-597.392343,-321.378512,-932.824748,0,6,0,0,0,0
3.510800,-688.086000,-67.080709,-671.307675,-821.426024,-595.297110,-324.676781,-941.212367,0,6,0,0,0,0
3.514820,-675.444000,-70.053929,-658.665675,-817.473598,-582.954429,-311.435095,-914.790707,0,6,0,0,0,0
3.518794,-667.016000,-66.730905,-655.630708,-815.038408,-561.955031,-309.003947,-908.759169,0,6,0,0,0,0
3.522768,-691.999000,-73.396050,-671.625320,-830.432912,-604.298533,-336.385688,-960.702374,0,6,0,0,0,0
3.526755,-692.601000,-72.496587,-668.931577,-829.237069,-608.791680,-336.987688,-941.533557,0,6,0,0,0,0
3.530745,-683.872000,-75.178709,-661.700642,-823.504474,-584.797411,-320.462781,-924.416938,0,6,0,0,0,0
3.534737,-680.260000,-78.473441,-661.384384,-822.289598,-578.192221,-314.452040,-915.712455,0,6,0,0,0,0
3.538738,-689.591000,-78.795660,-673.112288,-828.923834,-592.910963,-324.982410,-937.025768,0,6,0,0,0,0
3.542714,-690.193000,-75.794148,-670.718159,-828.626912,-597.404110,-328.582836,-932.834843,0,6,0,0,0,0
3.546704,-688.387000,-72.786977,-666.814868,-822.925586,-594.700153,-317.781558,-926.835033,0,6,0,0,0,0
3.550694,-690.193000,-75.193562,-671.017771,-829.226193,-597.404110,-327.983151,-923.848108,0,6,0,0,0,0
3.554682,-676.949000,-74.261563,-658.372997,-825.570689,-567.996884,-320.736003,-907.009414,0,6,0,0,0,0
3.558680,-683.270000,-71.573782,-667.390514,-825.898879,-584.494730,-316.562512,-927.709190,0,6,0,0,0,0
3.562734,-695.310000,-74.905294,-673.438255,-829.848586,-603.718386,-321.706132,-944.841673,0,6,0,0,0,0
3.566665,-688.387000,-76.390489,-667.713707,-825.023069,-595.897429,-321.679512,-928.033265,0,6,0,0,0,0
3.570639,-689.290000,-76.993197,-672.511675,-829.821396,-595.303834,-327.379993,-936.125653,0,6,0,0,0,0
3.574633,-682.969000,-69.170733,-667.688740,-825.897520,-577.908031,-324.057419,-939.989619,0,6,0,0,0,0
3.578617,-685.377000,-66.173465,-672.493643,-826.807317,-581.513307,-318.669512,-928.018843,0,6,0,0,0,0
3.582617,-682.367000,-62.863172,-671.281321,-826.194441,-563.238038,-322.256049,-923.810612,0,6,0,0,0,0
3.586609,-696.213000,-68.300977,-681.831579,-827.455540,-603.424110,-316.012595,-942.449537,0,6,0,0,0,0
3.590592,-698.922000,-72.511440,-682.742901,-836.756631,-608.228343,-336.112466,-940.066054,0,6,0,0,0,0
3.594574,-692.300000,-73.697050,-678.218192,-831.333193,-592.028135,-328.291095,-928.351571,0,6,0,0,0,0
3.598589,-687.785000,-66.479416,-673.403579,-825.619631,-581.526755,-316.579873,-945.105177,0,6,0,0,0,0
3.602560,-675.745000,-59.544392,-660.165127,-809.983945,-567.690841,-295.544595,-911.497013,0,6,0,0,0,0
3.606574,-683.270000,-63.766172,-666.791288,-820.804991,-579.705626,-326.757160,-939.092388,0,6,0,0,0,0
3.610549,-684.775000,-67.373221,-672.490869,-828.602441,-586.299049,-341.455234,-937.002694,0,6,0,0,0,0
3.614526,-683.270000,-64.667050,-670.386643,-827.996363,-580.902902,-333.053854,-930.405210,0,6,0,0,0,0
3.618510,-678.755000,-63.455270,-666.171256,-823.781003,-574.891307,-323.441530,-927.088442,0,6,0,0,0,0
3.622507,-692.902000,-66.791733,-672.228707,-828.639148,-606.398809,-327.094040,-949.623061,0,6,0,0,0,0
3.626489,-698.019000,-71.608440,-678.244546,-836.752553,-608.821938,-348.102697,-960.431660,0,6,0,0,0,0
3.630480,-689.290000,-64.080611,-674.009740,-831.319598,-598.596343,-349.868188,-938.522115,0,6,0,0,0,0
3.634471,-687.785000,-70.383221,-676.100095,-832.811003,-588.111773,-344.465234,-942.109598,0,6,0,0,0,0
3.638459,-684.474000,-66.171343,-672.189869,-824.406115,-585.698730,-328.560845,-936.402136,0,6,0,0,0,0
3.642447,-679.959000,-70.364831,-667.075643,-824.985003,-584.176920,-333.940651,-929.490673,0,6,0,0,0,0
3.646464,-676.347000,-70.356343,-665.560934,-824.069768,-572.483307,-334.826290,-928.275136,0,6,0,0,0,0
3.650429,-668.822000,-69.437783,-658.035934,-812.649441,-567.951497,-325.502234,-911.463843,0,6,0,0,0,0
3.654416,-676.648000,-69.456173,-662.566192,-815.681193,-578.770687,-330.929493,-933.968177,0,6,0,0,0,0
3.658408,-669.123000,-67.336441,-661.333063,-813.250082,-563.463393,-324.903706,-917.156884,0,6,0,0,0,0
3.662414,-676.046000,-69.454758,-668.855289,-822.869846,-577.869368,-338.423243,-934.264850,0,6,0,0,0,0
3.666397,-666.113000,-67.029075,-660.120741,-810.539722,-569.732282,-322.193549,-912.049979,0,6,0,0,0,0
3.670395,-678.153000,-67.357660,-664.370805,-816.586912,-580.275687,-328.536540,-936.671408,0,6,0,0,0,0
3.674363,-679.357000,-68.561660,-669.170160,-822.585160,-585.071515,-331.539595,-922.897516,0,6,0,0,0,0
3.678355,-683.571000,-64.968050,-667.092288,-824.102396,-588.387558,-320.161781,-927.111516,0,6,0,0,0,0
3.682342,-674.541000,-63.445368,-667.050676,-828.256578,-575.167092,-347.112891,-924.671789,0,6,0,0,0,0
3.686331,-677.250000,-60.148514,-671.557354,-829.767016,-580.270644,-357.317956,-933.671503,0,6,0,0,0,0
3.690327,-683.571000,-63.466587,-677.878354,-828.297363,-596.768490,-354.043993,-950.177469,0,6,0,0,0,0
3.694321,-679.959000,-67.962489,-674.266354,-826.782846,-586.571472,-356.129002,-939.975197,0,6,0,0,0,0
3.698298,-666.715000,-71.534880,-662.220806,-817.733813,-565.545178,-341.685632,-894.678509,0,6,0,0,0,0
3.702301,-670.628000,-67.940563,-662.238838,-815.654003,-577.240472,-339.601780,-924.053925,0,6,0,0,0,0
3.706280,-687.785000,-64.077074,-666.812094,-817.229697,-603.676361,-334.870271,-953.492796,0,6,0,0,0,0
3.710270,-679.056000,-58.050709,-661.978062,-812.096383,-593.750085,-324.342216,-937.873966,0,6,0,0,0,0
3.714255,-688.086000,-60.774562,-672.805740,-826.220272,-604.875318,-355.560567,-953.494238,0,6,0,0,0,0
3.718255,-677.852000,-58.348172,-665.567869,-816.285912,-590.151533,-340.828928,-930.379251,0,6,0,0,0,0
3.722237,-674.240000,-56.537928,-664.053160,-815.670317,-583.546343,-341.714567,-931.560177,0,6,0,0,0,0
3.726257,-675.143000,-55.939465,-664.956160,-815.075115,-587.143214,-335.421345,-936.357428,0,6,0,0,0,0
3.730217,-668.220000,-58.025246,-659.531225,-809.949958,-578.124981,-331.196928,-927.037966,0,6,0,0,0,0
3.734216,-672.133000,-61.337660,-662.844999,-813.563317,-590.718232,-336.908984,-915.074401,0,6,0,0,0,0
3.738207,-664.006000,-59.216514,-652.920321,-811.129487,-567.924601,-335.978206,-909.643421,0,6,0,0,0,0
3.742187,-661.598000,-54.406173,-652.609612,-810.219689,-557.734307,-332.370836,-934.794742,0,6,0,0,0,0
3.746169,-669.123000,-63.732929,-656.239643,-813.849363,-582.919128,-329.101503,-920.452020,0,6,0,0,0,0
3.750156,-679.056000,-63.455977,-663.476127,-820.486317,-600.335103,-334.237021,-938.173524,0,6,0,0,0,0
3.754151,-686.581000,-65.575709,-670.102288,-822.917429,-613.247845,-344.760447,-945.099408,0,6,0,0,0,0
3.758138,-664.006000,-60.417685,-653.219934,-806.335239,-573.910981,-322.185447,-902.454033,0,6,0,0,0,0
3.762145,-662.802000,-61.916319,-650.218256,-808.127644,-566.421282,-325.479086,-904.245612,0,6,0,0,0,0
3.766131,-668.822000,-57.125782,-661.032063,-817.443689,-585.311999,-347.990428,-930.935102,0,6,0,0,0,0
3.770104,-667.016000,-57.121538,-659.525676,-815.937330,-581.410766,-340.187577,-927.930871,0,6,0,0,0,0
3.774097,-676.949000,-64.952489,-671.555967,-827.668173,-584.459429,-346.822308,-944.154585,0,6,0,0,0,0
3.778083,-678.454000,-70.061002,-679.053226,-831.270656,-582.372601,-344.129512,-931.879925,0,6,0,0,0,0
3.782092,-685.678000,-70.678562,-676.689612,-832.501846,-602.766637,-347.455558,-938.205251,0,6,0,0,0,0
3.786061,-668.521000,-68.536197,-663.727193,-815.644487,-574.834153,-329.998716,-909.665054,0,6,0,0,0,0
3.789269,-676.347000,-64.650782,-671.553193,-822.871206,-591.340404,-349.218734,-927.676020,0,6,0,0,0,0
3.793254,-673.939000,-63.143660,-667.047902,-820.163565,-575.163730,-339.614512,-914.783496,0,6,0,0,0,0
3.797255,-679.959000,-61.656343,-672.768289,-818.692553,-588.068067,-333.640808,-933.384925,0,6,0,0,0,0
3.801231,-679.056000,-60.152757,-660.479997,-806.103573,-591.654852,-313.547882,-914.508455,0,6,0,0,0,0
3.805224,-672.133000,-69.145270,-664.043450,-820.155408,-579.044791,-359.697021,-913.277054,0,6,0,0,0,0
3.809212,-670.628000,-65.838514,-665.534580,-821.347173,-576.342515,-349.796428,-939.331374,0,6,0,0,0,0
3.813224,-678.755000,-71.863465,-672.163515,-825.279206,-587.462705,-353.425789,-952.251300,0,6,0,0,0,0
3.817202,-671.531000,-72.146783,-667.935645,-819.853049,-575.449601,-353.098169,-923.758694,0,6,0,0,0,0
3.821182,-665.812000,-69.731002,-661.917032,-815.032970,-563.444902,-344.980428,-913.845884,0,6,0,0,0,0
3.825172,-680.862000,-76.673099,-675.169354,-821.393396,-598.848594,-348.936253,-916.014897,0,6,0,0,0,0
3.829192,-685.076000,-76.983294,-678.484515,-827.704879,-588.695282,-353.150253,-947.189102,0,6,0,0,0,0
3.833149,-688.688000,-78.192953,-684.193806,-831.017239,-592.007963,-351.065243,-947.505966,0,6,0,0,0,0
3.837191,-690.795000,-80.900538,-683.304676,-825.633226,-595.910877,-344.476808,-942.723136,0,6,0,0,0,0
3.841131,-691.999000,-80.302782,-684.209063,-826.537586,-603.699895,-348.079549,-949.019619,0,6,0,0,0,0
3.845121,-681.163000,-74.571758,-675.769967,-825.889363,-589.870705,-354.334577,-934.888483,0,6,0,0,0,0
3.849107,-678.153000,-73.663807,-672.160741,-820.482239,-590.751852,-349.225678,-926.786000,0,6,0,0,0,0
3.853109,-676.046000,-77.562661,-668.256063,-817.775958,-584.454386,-345.319623,-920.485190,0,6,0,0,0,0
3.857117,-669.424000,-83.853247,-667.027096,-823.139578,-572.444644,-354.289438,-918.656115,0,6,0,0,0,0
3.861072,-667.618000,-82.047247,-667.618000,-820.434656,-567.046816,-350.684382,-902.770897,0,6,0,0,0,0
3.865070,-675.745000,-81.465758,-666.157386,-819.272801,-577.867687,-347.717206,-909.699666,0,6,0,0,0,0
3.869080,-678.454000,-81.472124,-671.862515,-819.884317,-581.773963,-348.926993,-924.690537,0,6,0,0,0,0
3.873407,-681.765000,-81.179612,-680.566548,-830.087049,-576.704031,-374.726187,-923.807727,0,6,0,0,0,0
3.877040,-683.571000,-85.087661,-683.271387,-828.597003,-586.591644,-367.237067,-926.512401,0,6,0,0,0,0
3.881029,-683.571000,-79.982685,-682.372548,-828.896644,-599.761680,-367.536910,-939.692945,0,6,0,0,0,0
3.885065,-692.300000,-75.498806,-685.708515,-829.535350,-619.565483,-351.678817,-948.122388,0,6,0,0,0,0
3.889228,-678.153000,-72.162343,-677.553774,-827.973251,-590.452533,-366.316706,-918.997496,0,6,0,0,0,0
3.893213,-679.056000,-68.861246,-673.662967,-827.378049,-579.682092,-360.023484,-932.781483,0,6,0,0,0,0
3.897217,-672.735000,-67.645221,-671.236935,-823.753813,-577.551558,-360.299021,-925.262251,0,6,0,0,0,0
3.901218,-682.066000,-69.168611,-672.478386,-823.196677,-604.542379,-368.430651,-942.381755,0,6,0,0,0,0
3.905194,-682.367000,-70.971075,-672.180160,-821.999474,-597.061085,-360.336058,-940.286292,0,6,0,0,0,0
3.909211,-679.357000,-73.066051,-675.462032,-824.083363,-594.649723,-362.123539,-929.787347,0,6,0,0,0,0
3.913164,-677.852000,-74.263685,-673.058193,-826.473689,-588.355619,-361.817910,-922.291190,0,6,0,0,0,0
3.917178,-672.133000,-71.847905,-670.035709,-822.252892,-584.731852,-357.598123,-924.360694,0,6,0,0,0,0
3.921148,-669.123000,-69.438490,-666.126871,-822.538937,-574.538196,-363.583400,-923.447598,0,6,0,0,0,0
3.925128,-665.210000,-64.024026,-666.708065,-821.622343,-576.312257,-369.565206,-917.138136,0,6,0,0,0,0
3.929118,-675.444000,-62.546611,-673.945935,-825.863532,-596.423784,-371.703456,-939.054891,0,6,0,0,0,0
3.933114,-674.842000,-63.145782,-672.744709,-822.564768,-591.331999,-371.101456,-931.862619,0,6,0,0,0,0
3.937108,-670.327000,-64.336343,-667.630483,-818.948689,-579.932662,-367.186141,-912.070169,0,6,0,0,0,0
3.941108,-668.220000,-68.235197,-666.721935,-816.841689,-563.757669,-368.677252,-904.870686,0,6,0,0,0,0
3.945099,-684.775000,-77.883465,-679.981193,-829.501363,-605.156146,-378.335873,-940.297830,0,6,0,0,0,0
3.949064,-682.066000,-79.678856,-676.672967,-825.893441,-590.773705,-373.827817,-931.897231,0,6,0,0,0,0
3.953086,-673.939000,-81.461515,-671.542096,-827.954219,-567.680755,-381.892317,-933.955197,0,6,0,0,0,0
3.957058,-677.551000,-78.767368,-668.562612,-826.172689,-575.483221,-379.207623,-933.972503,0,6,0,0,0,0
3.961031,-682.066000,-74.273587,-672.478386,-827.391644,-593.168257,-380.124512,-933.095462,0,6,0,0,0,0
3.965022,-680.862000,-68.865489,-670.675160,-825.288722,-586.277196,-376.221928,-931.292347,0,6,0,0,0,0
3.969028,-680.862000,-69.766368,-672.472838,-822.292317,-599.147913,-375.922086,-934.287925,0,6,0,0,0,0
3.973046,-665.812000,-63.124563,-659.520128,-811.137644,-571.825834,-373.165632,-903.061802,0,6,0,0,0,0
3.976994,-674.541000,-70.652392,-667.949515,-817.469520,-584.745300,-366.302817,-924.372231,0,6,0,0,0,0
3.980991,-681.765000,-75.474051,-668.881643,-815.704305,-594.663171,-357.035475,-933.393578,0,6,0,0,0,0
3.984969,-676.046000,-76.361490,-671.551806,-819.873441,-585.352343,-384.898845,-927.075462,0,6,0,0,0,0
3.988368,-673.638000,-79.358758,-667.346128,-812.970834,-582.944343,-365.699660,-932.156408,0,6,0,0,0,0
3.992352,-679.959000,-78.472734,-671.569838,-811.501181,-591.959214,-362.725539,-935.481830,0,6,0,0,0,0
3.996333,-678.454000,-75.466270,-675.457871,-812.992586,-589.256938,-366.917549,-932.179483,0,6,0,0,0,0
4.000377,-672.434000,-74.250953,-669.437871,-811.467193,-570.964859,-363.596132,-920.767442,0,6,0,0,0,0
4.004325,-657.083000,-70.611368,-660.678355,-809.300375,-550.226117,-369.533956,-891.337224,0,6,0,0,0,0
4.008368,-667.618000,-72.137588,-668.516839,-812.943644,-579.618214,-365.676512,-921.043925,0,6,0,0,0,0
4.012294,-673.337000,-71.850734,-673.037387,-814.168036,-588.031085,-363.899447,-927.661598,0,6,0,0,0,0
4.016286,-657.384000,-65.807393,-669.068905,-811.698859,-555.914859,-367.736058,-914.105061,0,6,0,0,0,0
4.020270,-674.240000,-71.252270,-682.928775,-830.652343,-580.253834,-390.888752,-945.639395,0,6,0,0,0,0
4.024266,-683.270000,-72.174368,-687.764194,-830.992768,-593.773619,-390.023947,-961.858783,0,6,0,0,0,0
4.028247,-676.949000,-74.261563,-676.949000,-819.577879,-592.541042,-373.208456,-945.652374,0,6,0,0,0,0
4.032262,-678.153000,-73.363514,-675.756096,-820.781879,-587.160024,-388.505058,-941.763891,0,6,0,0,0,0
4.036241,-676.648000,-73.660270,-673.651871,-820.775082,-582.961153,-388.499271,-935.166408,0,6,0,0,0,0
4.040213,-686.280000,-75.184368,-680.587354,-824.414272,-608.457060,-389.135993,-946.895313,0,6,0,0,0,0
4.044218,-682.668000,-76.977636,-679.971483,-822.600115,-595.266852,-383.724937,-938.190830,0,6,0,0,0,0
4.048191,-667.919000,-78.444441,-671.214742,-817.739251,-575.728748,-377.671373,-917.450673,0,6,0,0,0,0
4.052180,-684.173000,-86.290246,-687.169129,-829.498644,-600.962318,-395.724428,-953.175932,0,6,0,0,0,0
4.056170,-685.377000,-85.692490,-684.178548,-827.706239,-605.758146,-383.135669,-949.886565,0,6,0,0,0,0
4.060170,-679.658000,-84.477880,-683.852581,-827.980049,-594.052766,-395.107382,-937.277734,0,6,0,0,0,0
4.064147,-670.327000,-81.753320,-679.015775,-823.143656,-585.619723,-395.071502,-924.352041,0,6,0,0,0,0
4.068144,-663.103000,-82.937515,-675.986357,-816.518937,-579.293680,-385.148919,-916.828483,0,6,0,0,0,0
4.072135,-669.725000,-83.853954,-678.114162,-816.848487,-590.405465,-382.475798,-924.049598,0,6,0,0,0,0
4.076120,-672.735000,-82.659856,-684.120292,-820.457768,-582.939300,-387.284854,-951.024225,0,6,0,0,0,0
4.080134,-670.026000,-82.353198,-683.808195,-822.543016,-599.386716,-383.976169,-940.526721,0,6,0,0,0,0
4.084099,-662.802000,-78.732710,-676.883808,-816.217938,-589.768164,-380.650122,-924.016428,0,6,0,0,0,0
4.088376,-664.608000,-83.541637,-682.884390,-823.717107,-593.968716,-392.650771,-930.914912,0,6,0,0,0,0
4.091582,-655.277000,-79.015320,-672.954164,-818.880715,-584.637716,-392.015206,-924.579490,0,6,0,0,0,0
4.095577,-655.277000,-76.312686,-677.448358,-821.577479,-583.739759,-398.611743,-924.579490,0,6,0,0,0,0
4.099567,-641.732000,-66.671491,-670.195230,-808.032479,-563.909060,-393.762178,-902.646871,0,6,0,0,0,0
4.103563,-649.859000,-65.489417,-675.326100,-811.664872,-575.927207,-398.291067,-932.941150,0,6,0,0,0,0
4.107555,-657.083000,-64.605515,-682.550100,-813.794983,-576.266870,-397.719159,-944.358960,0,6,0,0,0,0
4.111532,-667.919000,-73.339466,-686.495003,-818.937813,-598.476992,-400.459409,-953.697171,0,6,0,0,0,0
4.115520,-663.705000,-74.831027,-681.382164,-816.821297,-602.643924,-397.444780,-934.205721,0,6,0,0,0,0
4.119523,-667.919000,-75.141222,-684.397712,-821.934219,-599.075630,-405.856576,-951.600266,0,6,0,0,0,0
4.123500,-667.317000,-69.434246,-684.994164,-823.429702,-594.283164,-399.557567,-945.905783,0,6,0,0,0,0
4.127493,-667.016000,-71.535588,-690.385810,-832.117917,-587.995784,-413.948854,-950.098150,0,6,0,0,0,0
4.131478,-662.802000,-81.435344,-690.366391,-828.203558,-583.482465,-401.938946,-939.892993,0,6,0,0,0,0
4.135468,-664.307000,-80.237710,-686.178745,-827.011793,-583.790189,-409.140956,-938.402415,0,6,0,0,0,0
4.139467,-659.792000,-77.524466,-679.866067,-823.096074,-574.486085,-407.324539,-920.706871,0,6,0,0,0,0
4.143505,-656.180000,-76.014515,-675.654841,-815.289107,-583.445483,-399.214900,-924.583816,0,6,0,0,0,0
4.147455,-656.481000,-72.111417,-674.757390,-811.994421,-586.739673,-406.112437,-930.276857,0,6,0,0,0,0
4.151468,-655.578000,-71.508710,-671.157873,-804.798970,-578.952336,-397.713372,-931.470762,0,6,0,0,0,0
4.155414,-661.297000,-70.621271,-676.577260,-814.712937,-597.542053,-407.030483,-944.079592,0,6,0,0,0,0
4.159416,-659.190000,-74.219832,-669.676453,-805.114925,-593.938458,-382.135447,-937.179667,0,6,0,0,0,0
4.163394,-652.568000,-75.705735,-668.447486,-808.680702,-575.343698,-402.199437,-923.967395,0,6,0,0,0,0
4.167382,-647.451000,-77.195174,-670.521197,-811.653996,-560.349171,-428.266066,-926.638898,0,6,0,0,0,0
4.171390,-650.762000,-79.905589,-667.839938,-809.871107,-571.442465,-410.288243,-928.152551,0,6,0,0,0,0
4.175367,-658.588000,-80.824857,-668.475227,-807.209689,-589.744630,-406.120539,-933.881647,0,6,0,0,0,0
4.179349,-659.792000,-78.425344,-661.889291,-801.821598,-590.649311,-395.330835,-943.473266,0,6,0,0,0,0
4.183352,-657.986000,-84.426954,-663.379033,-807.506611,-583.156250,-417.512243,-933.579204,0,6,0,0,0,0
4.187335,-652.568000,-82.612467,-663.054453,-806.583219,-574.745060,-417.491409,-920.971816,0,6,0,0,0,0
4.190827,-653.471000,-82.314296,-662.759001,-807.186578,-575.947379,-425.890474,-920.377027,0,6,0,0,0,0
4.194812,-649.859000,-81.104637,-663.341583,-809.867029,-572.335379,-433.072807,-933.839824,0,6,0,0,0,0
4.198820,-648.655000,-75.996832,-656.444937,-811.959074,-564.247042,-445.061881,-914.063238,0,6,0,0,0,0
4.202796,-645.946000,-71.786369,-657.031679,-810.448636,-553.755748,-456.145640,-928.728592,0,6,0,0,0,0
4.206783,-647.752000,-74.493247,-658.837679,-807.760029,-575.616121,-461.549751,-938.323096,0,6,0,0,0,0
4.210773,-658.287000,-79.322686,-668.773453,-810.504375,-589.443630,-468.186798,-951.853674,0,6,0,0,0,0
4.214802,-653.772000,-81.414125,-661.561937,-802.992970,-579.241569,-464.571326,-922.175816,0,6,0,0,0,0
4.218768,-644.441000,-77.788686,-653.429388,-796.658375,-557.638490,-469.332927,-929.919613,0,6,0,0,0,0
4.222831,-653.471000,-82.314296,-657.665581,-804.489813,-569.960999,-482.260881,-940.447402,0,6,0,0,0,0
4.226731,-667.016000,-87.751393,-664.918709,-812.341644,-592.485569,-498.204622,-942.010089,0,6,0,0,0,0
4.230722,-669.123000,-77.846685,-665.527645,-808.156193,-581.422533,-500.011779,-944.416647,0,6,0,0,0,0
4.234774,-659.792000,-75.722710,-663.686968,-804.518363,-547.248056,-509.870705,-924.601122,0,6,0,0,0,0
4.238704,-675.143000,-79.062002,-668.251902,-811.179788,-577.864325,-510.529418,-939.353007,0,6,0,0,0,0
4.242746,-676.648000,-80.266710,-662.566192,-805.793057,-575.478178,-506.337409,-934.267734,0,6,0,0,0,0
4.246682,-663.705000,-70.927222,-654.416999,-796.146102,-561.637221,-503.289214,-917.130925,0,6,0,0,0,0
4.250666,-667.016000,-73.637636,-661.922580,-810.843441,-571.233920,-531.786992,-926.433081,0,6,0,0,0,0
4.254719,-659.792000,-74.821832,-662.488517,-813.507578,-550.241246,-536.856538,-922.204660,0,6,0,0,0,0
4.258650,-657.384000,-74.816173,-651.990967,-808.402813,-559.806006,-526.352788,-914.404619,0,6,0,0,0,0
4.262636,-671.230000,-84.157783,-663.440063,-815.656722,-588.019318,-533.302408,-933.043544,0,6,0,0,0,0
4.266630,-666.715000,-79.342490,-661.621580,-811.441363,-572.728834,-531.785834,-928.828102,0,6,0,0,0,0
4.270617,-664.608000,-77.235490,-660.713032,-808.435441,-571.220472,-532.377418,-921.329061,0,6,0,0,0,0
4.274610,-669.725000,-88.058052,-665.830032,-813.852082,-577.534748,-536.894732,-931.238986,0,6,0,0,0,0
4.278597,-666.113000,-82.344003,-662.517645,-808.741879,-567.637049,-542.577853,-931.820796,0,6,0,0,0,0
4.282592,-663.404000,-77.532954,-658.010967,-807.531082,-560.438264,-550.063501,-928.812238,0,6,0,0,0,0
4.286585,-660.996000,-79.629344,-653.206063,-803.025598,-567.309153,-539.259908,-925.805122,0,6,0,0,0,0
4.290560,-663.404000,-79.635003,-653.516773,-802.437193,-577.200128,-530.273890,-918.627272,0,6,0,0,0,0
4.294553,-648.956000,-75.396954,-642.664128,-793.382722,-546.588902,-523.621797,-894.593421,0,6,0,0,0,0
4.298536,-658.889000,-85.630247,-654.994032,-808.409611,-558.018497,-551.245510,-923.997680,0,6,0,0,0,0
4.302538,-660.695000,-87.135954,-657.399258,-810.215611,-571.497938,-551.552297,-913.521809,0,6,0,0,0,0
4.306516,-650.461000,-70.896100,-645.966806,-802.079094,-554.379601,-547.614992,-898.195326,0,6,0,0,0,0
4.310509,-658.588000,-76.020173,-656.490709,-804.213284,-559.812730,-551.544195,-933.282531,0,6,0,0,0,0
4.314495,-656.180000,-85.023296,-655.281161,-807.198813,-559.499963,-555.133047,-907.209462,0,6,0,0,0,0
4.318488,-665.210000,-84.143637,-661.015419,-806.640317,-569.427920,-557.566510,-924.327524,0,6,0,0,0,0
4.322487,-669.123000,-82.351076,-664.329193,-809.654396,-564.959988,-566.576834,-933.033449,0,6,0,0,0,0
4.326460,-654.073000,-75.709271,-650.477645,-803.293970,-545.420203,-561.121797,-894.018822,0,6,0,0,0,0
4.330474,-671.531000,-77.852344,-661.943386,-810.564193,-582.034619,-565.086880,-924.058251,0,6,0,0,0,0
4.334592,-678.153000,-76.967026,-662.573127,-810.294462,-584.765472,-561.514232,-916.301475,0,6,0,0,0,0
4.338446,-671.832000,-75.450710,-663.143225,-807.868788,-572.757411,-561.789769,-922.561904,0,6,0,0,0,0
4.342437,-667.016000,-75.439393,-662.222193,-812.641284,-555.968651,-580.661334,-922.239272,0,6,0,0,0,0
4.346410,-669.424000,-73.042710,-667.626322,-815.648565,-570.050092,-577.672167,-923.748598,0,6,0,0,0,0
4.350400,-673.337000,-66.445465,-664.648225,-814.767317,-585.037895,-568.691936,-920.771768,0,6,0,0,0,0
4.354419,-671.230000,-63.737880,-665.237741,-815.057441,-573.951325,-569.883204,-918.964326,0,6,0,0,0,0
4.358385,-669.725000,-58.028782,-656.841643,-814.151722,-567.956540,-572.276158,-917.159768,0,6,0,0,0,0
4.362367,-679.357000,-58.351709,-667.971708,-818.689834,-588.064705,-575.611464,-934.879830,0,6,0,0,0,0
4.366390,-676.949000,-57.144879,-661.668740,-812.086867,-587.452619,-564.807871,-928.278020,0,6,0,0,0,0
4.370347,-670.628000,-55.027977,-656.845805,-813.256879,-577.539791,-569.880890,-920.758789,0,6,0,0,0,0
4.374347,-672.434000,-59.536611,-660.449482,-814.763239,-584.434214,-574.085630,-922.864347,0,6,0,0,0,0
4.378329,-669.123000,-60.129416,-662.831128,-821.340375,-567.653859,-592.663139,-923.747156,0,6,0,0,0,0
4.382315,-658.588000,-57.101734,-657.689161,-820.393872,-546.044056,-598.019797,-917.405966,0,6,0,0,0,0
4.386318,-667.618000,-56.822660,-662.524580,-821.633219,-581.114809,-597.754676,-932.127565,0,6,0,0,0,0
4.390300,-673.337000,-64.643709,-662.850547,-822.258330,-586.235171,-597.776667,-934.551428,0,6,0,0,0,0
4.394279,-675.143000,-68.852051,-663.757708,-822.266487,-580.258877,-598.383297,-927.969809,0,6,0,0,0,0
4.398271,-668.521000,-66.434148,-657.435321,-812.947722,-575.432791,-591.461454,-927.638524,0,6,0,0,0,0
4.402269,-666.414000,-64.627441,-656.826386,-812.338925,-570.332601,-588.754769,-924.033734,0,6,0,0,0,0
4.406246,-670.929000,-57.130733,-657.146805,-811.760036,-586.221723,-584.274491,-922.557578,0,6,0,0,0,0
4.410235,-670.026000,-60.431831,-655.944192,-813.553801,-579.631662,-595.365195,-926.447503,0,6,0,0,0,0
4.414246,-670.628000,-62.235002,-654.149288,-812.657598,-576.342515,-594.767825,-926.749945,0,6,0,0,0,0
4.418218,-666.113000,-53.816197,-649.634288,-808.442239,-564.643859,-593.551093,-912.349537,0,6,0,0,0,0
4.422229,-673.939000,-56.537221,-655.962223,-814.470396,-569.177350,-594.180871,-933.056524,0,6,0,0,0,0
4.426196,-668.822000,-60.429002,-655.938643,-812.949082,-556.577375,-597.159621,-940.221395,0,6,0,0,0,0
4.430190,-676.046000,-64.349782,-661.065353,-815.978115,-576.971411,-595.688186,-925.877231,0,6,0,0,0,0
4.434193,-673.036000,-60.438904,-657.456127,-817.163082,-561.988651,-599.874408,-929.457503,0,6,0,0,0,0
4.438164,-683.270000,-64.967343,-663.795159,-819.306788,-584.494730,-594.816436,-946.581333,0,6,0,0,0,0
4.442152,-669.725000,-64.935514,-654.744353,-813.552441,-564.364712,-584.569704,-927.644292,0,6,0,0,0,0
4.446145,-663.705000,-64.020490,-649.023966,-805.434958,-563.133816,-581.548130,-920.126503,0,6,0,0,0,0
4.450219,-677.551000,-67.956831,-662.570353,-818.382036,-588.952576,-611.285788,-942.360122,0,6,0,0,0,0
4.454124,-676.347000,-70.356343,-660.467514,-816.279115,-566.796246,-599.587297,-930.971156,0,6,0,0,0,0
4.458114,-672.735000,-71.549026,-670.637709,-823.154532,-557.197866,-620.862232,-927.059598,0,6,0,0,0,0
4.462122,-679.357000,-66.459611,-675.761645,-823.783722,-573.996712,-614.291158,-929.188231,0,6,0,0,0,0
4.466108,-686.581000,-70.080099,-680.888354,-830.708082,-580.921393,-610.720825,-937.910020,0,6,0,0,0,0
4.470089,-684.775000,-73.679368,-680.580419,-826.804598,-578.217436,-604.117343,-931.011537,0,6,0,0,0,0
4.474082,-694.708000,-80.909733,-689.614580,-837.336879,-590.844307,-616.748927,-953.226408,0,6,0,0,0,0
4.478155,-689.591000,-79.996831,-687.793322,-833.718082,-583.033436,-610.732399,-952.003660,0,6,0,0,0,0
4.482053,-685.076000,-75.181538,-676.686838,-827.105598,-580.613669,-596.922278,-941.797061,0,6,0,0,0,0
4.486129,-675.143000,-69.752929,-665.854999,-823.165408,-564.993608,-601.381723,-923.476442,0,6,0,0,0,0
4.490039,-667.618000,-60.426173,-663.723032,-818.037532,-554.475418,-593.556880,-921.643041,0,6,0,0,0,0
4.494013,-682.066000,-68.568026,-675.174902,-823.496317,-581.494816,-597.510390,-944.179102,0,6,0,0,0,0
4.498006,-679.959000,-66.461026,-670.970612,-823.187160,-583.877601,-594.503862,-935.481830,0,6,0,0,0,0
4.502072,-679.056000,-69.461831,-666.472256,-815.692069,-585.668472,-594.200547,-937.574408,0,6,0,0,0,0
4.505991,-671.531000,-73.047661,-656.250740,-806.369226,-574.252325,-581.878065,-921.961347,0,6,0,0,0,0
4.509991,-666.113000,-71.533466,-651.431966,-805.146193,-566.439773,-574.661010,-911.750421,0,6,0,0,0,0
4.513987,-674.541000,-73.655319,-665.252999,-816.270958,-566.486841,-598.380982,-937.253218,0,6,0,0,0,0
4.518034,-668.822000,-66.134563,-661.032063,-814.147644,-559.570565,-598.958676,-929.736871,0,6,0,0,0,0
4.521950,-673.638000,-70.650270,-667.346128,-818.364363,-574.862730,-596.578454,-935.151986,0,6,0,0,0,0
4.525927,-661.297000,-65.216002,-655.903967,-806.922284,-569.705386,-579.439973,-904.837516,0,6,0,0,0,0
4.529919,-648.354000,-60.681198,-646.256709,-798.174251,-531.020952,-572.193982,-904.176388,0,6,0,0,0,0
4.533911,-656.481000,-63.703222,-649.889515,-807.499813,-533.161572,-591.715000,-930.576415,0,6,0,0,0,0
4.537895,-670.327000,-63.135173,-661.338612,-812.056958,-581.429257,-589.969186,-929.144966,0,6,0,0,0,0
4.541886,-682.367000,-79.078978,-668.884417,-817.504867,-590.476067,-605.607297,-920.215918,0,6,0,0,0,0
4.545875,-669.725000,-73.343710,-664.032354,-813.852082,-558.677651,-604.359315,-924.049598,0,6,0,0,0,0
4.549865,-677.250000,-73.961978,-672.156580,-818.081036,-559.916952,-607.086834,-936.367524,0,6,0,0,0,0
4.553868,-673.939000,-78.758880,-669.744419,-818.665363,-546.129787,-607.373945,-932.457408,0,6,0,0,0,0
4.557846,-685.678000,-78.786465,-679.086515,-824.711193,-590.195239,-608.618454,-953.482701,0,6,0,0,0,0
4.561835,-682.367000,-73.373416,-676.973967,-827.393003,-588.979472,-621.798797,-942.682755,0,6,0,0,0,0
4.565827,-672.434000,-66.143051,-666.741354,-826.449219,-562.284608,-619.661704,-931.251966,0,6,0,0,0,0
4.569812,-672.434000,-63.140124,-667.939806,-825.550297,-552.407081,-609.167213,-920.767442,0,6,0,0,0,0
4.573802,-685.979000,-67.376050,-676.091773,-835.499611,-581.516669,-626.310325,-939.105367,0,6,0,0,0,0
4.577872,-683.270000,-68.270562,-676.079289,-827.696722,-571.923332,-615.205732,-945.982218,0,6,0,0,0,0
4.581867,-679.357000,-72.465465,-672.765515,-823.184441,-567.711013,-611.892417,-936.078061,0,6,0,0,0,0
4.585768,-682.969000,-74.876294,-673.381386,-824.099677,-568.928461,-621.801112,-946.879449,0,6,0,0,0,0
4.589758,-685.979000,-77.285709,-677.589838,-826.210755,-578.224160,-624.811112,-945.995197,0,6,0,0,0,0
4.593760,-683.571000,-73.676538,-675.781063,-821.705272,-568.632504,-612.808149,-935.499136,0,6,0,0,0,0
4.597738,-679.959000,-67.962489,-669.172934,-820.190755,-565.319823,-613.693788,-933.085367,0,6,0,0,0,0
4.601752,-681.765000,-69.468197,-674.274676,-826.491363,-565.329909,-623.895380,-939.085177,0,6,0,0,0,0
4.605715,-677.852000,-65.555197,-664.968643,-820.480879,-572.192393,-619.082852,-926.485000,0,6,0,0,0,0
4.609702,-667.618000,-67.933490,-659.228838,-814.741487,-546.992443,-616.344917,-909.061612,0,6,0,0,0,0
4.613698,-663.103000,-74.529320,-660.706096,-816.518937,-531.103321,-618.726297,-918.625830,0,6,0,0,0,0
4.617691,-687.785000,-86.599026,-679.096225,-825.919272,-584.519945,-618.821204,-949.898102,0,6,0,0,0,0
4.621676,-688.989000,-79.094538,-673.109514,-816.635854,-591.111687,-596.637482,-922.943666,0,6,0,0,0,0
4.625669,-675.444000,-78.462124,-667.054838,-818.072879,-552.124572,-628.068871,-927.072578,0,6,0,0,0,0
4.629664,-670.327000,-74.246002,-663.136289,-814.753722,-546.109615,-617.854547,-921.056904,0,6,0,0,0,0
4.633641,-681.765000,-73.972587,-674.873902,-827.989565,-575.207436,-643.085306,-947.472796,0,6,0,0,0,0
4.637629,-682.367000,-76.076051,-677.573193,-829.790127,-582.394454,-652.382741,-933.696020,0,6,0,0,0,0
4.641640,-679.959000,-76.670978,-669.772160,-825.883925,-577.891221,-637.981037,-940.873871,0,6,0,0,0,0
4.645633,-672.133000,-68.844978,-659.249643,-819.556127,-568.568626,-628.955667,-917.470863,0,6,0,0,0,0
4.649631,-670.327000,-65.837807,-659.840547,-814.454082,-559.578970,-625.050769,-903.982108,0,6,0,0,0,0
4.653589,-670.628000,-61.033831,-662.238838,-813.556520,-554.492228,-629.849408,-929.445966,0,6,0,0,0,0
4.657576,-679.658000,-67.961782,-676.362258,-826.781487,-570.107246,-641.278148,-948.061816,0,6,0,0,0,0
4.661581,-675.745000,-67.352002,-668.254676,-820.171722,-565.296289,-638.564519,-932.166503,0,6,0,0,0,0
4.665566,-671.230000,-63.737880,-662.241612,-810.263193,-561.080608,-621.755973,-915.070074,0,6,0,0,0,0
4.669543,-671.832000,-66.441929,-663.742450,-812.962677,-565.873074,-624.756713,-918.967210,0,6,0,0,0,0
4.673532,-672.735000,-60.137904,-667.641580,-818.060644,-565.578798,-631.356723,-934.548544,0,6,0,0,0,0
4.677521,-674.842000,-61.043733,-669.448967,-818.969082,-574.270816,-642.459000,-925.272347,0,6,0,0,0,0
4.681521,-668.521000,-57.125075,-667.921774,-813.547003,-561.364798,-626.543037,-932.731007,0,6,0,0,0,0
4.685521,-672.735000,-62.840538,-673.933452,-820.158127,-560.490375,-636.154204,-936.046333,0,6,0,0,0,0
4.689498,-673.939000,-68.849221,-679.032420,-824.358532,-561.694375,-643.954741,-940.245912,0,6,0,0,0,0
4.693479,-676.949000,-69.156587,-677.548226,-825.271049,-576.976454,-638.868991,-939.960775,0,6,0,0,0,0
4.697482,-678.153000,-67.057368,-671.861128,-820.182598,-585.064791,-638.573778,-935.772734,0,6,0,0,0,0
4.701463,-667.317000,-61.626636,-664.920096,-815.938689,-567.643773,-637.632584,-930.328775,0,6,0,0,0,0
4.705484,-663.404000,-62.518319,-660.707483,-812.325330,-559.540307,-631.620685,-927.913565,0,6,0,0,0,0
4.709453,-658.588000,-60.705246,-657.689161,-804.812565,-549.635884,-621.707361,-912.912598,0,6,0,0,0,0
4.713495,-666.414000,-66.729490,-660.721354,-804.248631,-566.441454,-632.831630,-923.434619,0,6,0,0,0,0
4.717420,-655.879000,-62.500636,-650.485967,-803.002487,-549.620755,-635.489704,-904.811557,0,6,0,0,0,0
4.721404,-667.016000,-68.232368,-657.428386,-807.247755,-568.240730,-631.934417,-921.340598,0,6,0,0,0,0
4.725395,-667.919000,-62.228636,-655.335256,-809.648958,-571.238963,-636.135685,-928.833871,0,6,0,0,0,0
4.729399,-671.230000,-69.443441,-661.043160,-816.555644,-581.733619,-647.842278,-932.743986,0,6,0,0,0,0
4.733617,-673.939000,-73.353612,-667.047902,-824.957813,-587.735128,-664.044195,-945.038837,0,6,0,0,0,0
4.737385,-667.919000,-70.636831,-654.436417,-814.742846,-582.313766,-648.129389,-933.626796,0,6,0,0,0,0
4.741350,-666.113000,-70.032002,-654.128482,-813.236487,-571.827515,-649.621658,-913.547768,0,6,0,0,0,0
4.745447,-667.317000,-67.932783,-656.530934,-809.945879,-568.242411,-639.131797,-913.853095,0,6,0,0,0,0
4.749340,-675.444000,-73.957734,-670.050967,-812.679350,-574.274178,-638.563361,-938.455775,0,6,0,0,0,0
4.753319,-667.618000,-72.437880,-659.828063,-806.351553,-569.142049,-629.837834,-918.048347,0,6,0,0,0,0
4.757321,-662.802000,-69.123344,-656.809741,-804.831598,-558.040350,-635.516324,-925.813775,0,6,0,0,0,0
4.761298,-681.163000,-75.472636,-667.980030,-816.600507,-592.564576,-638.285510,-959.452225,0,6,0,0,0,0
4.765291,-674.541000,-74.856490,-665.852225,-816.870239,-581.153472,-648.454695,-943.244374,0,6,0,0,0,0
4.769279,-667.919000,-73.039173,-658.331386,-810.847520,-567.946454,-633.437102,-929.732544,0,6,0,0,0,0
4.773271,-669.424000,-75.745344,-663.731354,-809.056474,-572.444644,-632.843204,-932.435775,0,6,0,0,0,0
4.777253,-672.735000,-73.651075,-670.038483,-813.566036,-572.463135,-642.151056,-936.645449,0,6,0,0,0,0
4.781276,-672.434000,-69.746563,-669.437871,-815.062879,-577.549877,-643.049426,-936.044891,0,6,0,0,0,0
4.785246,-671.832000,-70.946319,-668.835871,-812.063755,-573.356049,-639.449000,-924.059694,0,6,0,0,0,0
4.789246,-665.812000,-72.433636,-662.516258,-809.040160,-552.968737,-636.427426,-912.048537,0,6,0,0,0,0
4.793222,-665.812000,-76.037149,-661.317806,-810.538363,-561.948307,-634.028685,-919.537483,0,6,0,0,0,0
4.797211,-680.260000,-76.071099,-670.672386,-813.300383,-588.668386,-630.785973,-946.566912,0,6,0,0,0,0
4.801192,-674.541000,-74.556197,-666.751063,-815.671677,-576.963006,-634.961778,-931.262061,0,6,0,0,0,0
4.805179,-662.501000,-72.425856,-655.909515,-812.620892,-544.569314,-643.311074,-919.222061,0,6,0,0,0,0
4.809176,-649.859000,-68.792637,-650.458226,-805.971702,-524.145020,-636.965769,-915.866354,0,6,0,0,0,0
4.813298,-663.705000,-71.227515,-664.903452,-816.222016,-579.895680,-660.106889,-933.906163,0,6,0,0,0,0
4.817157,-673.036000,-72.750905,-663.448386,-815.065598,-588.927361,-647.549380,-919.572095,0,6,0,0,0,0
4.821139,-671.531000,-77.251758,-672.130226,-816.856644,-584.728490,-652.640917,-942.930395,0,6,0,0,0,0
4.825126,-673.638000,-69.749392,-671.840322,-812.371553,-587.733447,-646.052482,-957.618824,0,6,0,0,0,0
4.829136,-656.481000,-61.000588,-653.784483,-803.604487,-558.005049,-632.793435,-922.787912,0,6,0,0,0,0
4.833121,-670.026000,-61.332709,-671.823678,-818.048408,-568.856178,-663.429463,-947.416551,0,6,0,0,0,0
4.837126,-672.133000,-64.040294,-669.436483,-810.267272,-577.248877,-647.845750,-933.347428,0,6,0,0,0,0
4.841100,-667.317000,-64.629563,-666.118548,-811.743722,-570.038325,-642.729908,-921.042483,0,6,0,0,0,0
4.845115,-662.802000,-67.021295,-664.899291,-809.925487,-558.040350,-645.411130,-918.624388,0,6,0,0,0,0
4.849084,-679.658000,-69.463246,-677.860322,-821.987239,-591.957533,-650.873111,-951.956068,0,6,0,0,0,0
4.853052,-688.086000,-72.185684,-685.988709,-825.021710,-604.575999,-657.502056,-956.489816,0,6,0,0,0,0
4.857044,-672.434000,-61.638660,-676.928194,-820.456408,-583.835576,-654.743287,-944.432510,0,6,0,0,0,0
4.861035,-672.133000,-62.238538,-675.129129,-821.653611,-585.629809,-659.839454,-942.334163,0,6,0,0,0,0
4.865022,-655.578000,-61.298758,-658.574129,-809.892859,-560.394558,-648.081935,-912.898177,0,6,0,0,0,0
4.869010,-672.133000,-70.046148,-673.331452,-813.862958,-573.058411,-657.440713,-948.924436,0,6,0,0,0,0
4.872999,-675.444000,-67.951880,-672.148258,-810.282226,-568.287798,-643.960528,-935.759755,0,6,0,0,0,0
4.877019,-672.434000,-67.043929,-667.640193,-806.972586,-573.658730,-644.548639,-926.159483,0,6,0,0,0,0
4.881010,-669.725000,-71.241661,-670.324226,-809.956755,-574.541558,-646.936963,-936.331469,0,6,0,0,0,0
4.884969,-670.026000,-68.239441,-670.325613,-812.055598,-583.522809,-642.140639,-941.125837,0,6,0,0,0,0
4.888970,-669.424000,-74.243880,-672.120517,-815.348925,-573.043282,-653.532343,-927.942408,0,6,0,0,0,0
4.892959,-678.454000,-76.066856,-676.955935,-823.779644,-588.957619,-669.758565,-943.263122,0,6,0,0,0,0
4.896943,-683.571000,-81.484148,-684.769452,-829.495925,-596.169852,-670.977611,-957.965973,0,6,0,0,0,0
4.900928,-669.725000,-71.541953,-670.623839,-817.747408,-582.323852,-650.834917,-926.146503,0,6,0,0,0,0
4.904921,-664.006000,-72.129100,-672.395162,-820.717983,-564.931411,-667.903954,-931.511143,0,6,0,0,0,0
4.908914,-662.802000,-73.327441,-672.090001,-825.806434,-569.713791,-675.095546,-934.800510,0,6,0,0,0,0
4.912988,-670.327000,-72.444246,-678.716162,-824.941500,-588.313594,-662.531093,-931.241871,0,6,0,0,0,0
4.916884,-672.434000,-73.650368,-683.220066,-827.647781,-579.645110,-664.338250,-946.529415,0,6,0,0,0,0
4.920885,-674.240000,-75.456368,-679.932646,-822.562049,-582.349067,-663.745509,-938.150449,0,6,0,0,0,0
4.924862,-676.046000,-80.865880,-677.244452,-822.869846,-579.964601,-664.352139,-934.264850,0,6,0,0,0,0
4.928916,-674.541000,-78.760295,-678.735581,-822.563408,-573.371178,-670.643046,-939.050565,0,6,0,0,0,0
4.932893,-677.551000,-80.869417,-679.348678,-824.974127,-588.054619,-667.356352,-940.562775,0,6,0,0,0,0
4.936870,-669.424000,-75.745344,-672.120517,-818.644970,-573.043282,-670.623370,-922.250809,0,6,0,0,0,0
4.940821,-662.802000,-72.126271,-669.992711,-814.719735,-568.815834,-666.999796,-929.708027,0,6,0,0,0,0
4.944873,-667.317000,-68.233075,-667.916226,-810.844801,-579.017895,-669.116056,-935.421259,0,6,0,0,0,0
4.948799,-658.889000,-63.408588,-657.091322,-806.312127,-559.814411,-664.885852,-919.803871,0,6,0,0,0,0
4.952789,-673.939000,-73.353612,-674.238613,-818.066082,-574.864411,-679.036324,-948.933089,0,6,0,0,0,0
4.956796,-670.929000,-71.845075,-673.026291,-819.550689,-579.636705,-670.029472,-944.724857,0,6,0,0,0,0
4.960765,-664.006000,-69.126173,-666.702517,-814.125892,-567.625282,-668.803481,-934.207163,0,6,0,0,0,0
4.964788,-656.782000,-65.805978,-659.478517,-810.797219,-558.306049,-654.683102,-915.300408,0,6,0,0,0,0
4.968743,-656.180000,-67.606320,-657.977678,-810.195219,-556.506773,-659.178426,-911.403272,0,6,0,0,0,0
4.972736,-661.899000,-72.424441,-664.595517,-812.917813,-561.926454,-663.997898,-933.597953,0,6,0,0,0,0
4.976738,-650.160000,-64.288954,-652.257291,-801.778094,-538.214694,-649.560315,-917.066027,0,6,0,0,0,0
4.980716,-670.929000,-69.442734,-668.831709,-815.655363,-588.616275,-664.632306,-941.429721,0,6,0,0,0,0
4.984701,-670.628000,-70.342905,-669.429548,-816.552925,-575.145239,-667.329732,-931.243313,0,6,0,0,0,0
4.988694,-649.859000,-60.384441,-651.656678,-798.181049,-553.777601,-643.562306,-893.399516,0,6,0,0,0,0
4.992688,-659.491000,-66.112636,-662.786742,-811.109094,-561.913006,-670.285333,-921.004986,0,6,0,0,0,0
4.996751,-665.812000,-65.827197,-661.617419,-808.440879,-565.240816,-661.314361,-936.312721,0,6,0,0,0,0
5.000661,-668.521000,-66.434148,-667.322548,-817.741970,-561.065479,-685.312185,-933.629680,0,6,0,0,0,0
5.004647,-654.073000,-62.796685,-655.571065,-805.391454,-544.821565,-666.366546,-897.613516,0,6,0,0,0,0
5.008636,-651.966000,-58.887929,-652.864839,-805.082297,-546.306393,-661.860805,-906.290598,0,6,0,0,0,0
5.012631,-656.782000,-55.295734,-653.785871,-804.504768,-558.605368,-668.475861,-926.384048,0,6,0,0,0,0
5.016616,-669.123000,-66.135270,-667.325322,-816.845768,-578.728662,-689.512296,-951.905592,0,6,0,0,0,0
5.020606,-662.501000,-69.422929,-657.107967,-804.530598,-572.106662,-670.296907,-918.622945,0,6,0,0,0,0
5.024593,-667.016000,-71.835880,-663.121032,-810.244160,-573.927791,-677.510491,-926.433081,0,6,0,0,0,0
5.028602,-664.307000,-67.625417,-662.209709,-812.329408,-564.933092,-678.699444,-922.525850,0,6,0,0,0,0
5.032591,-664.608000,-64.322905,-671.499098,-819.522140,-563.438178,-682.898398,-946.491919,0,6,0,0,0,0
5.036570,-664.307000,-60.118099,-663.108548,-814.426892,-569.123558,-673.002435,-928.217449,0,6,0,0,0,0
5.040560,-672.735000,-62.840538,-667.042354,-818.060644,-575.755644,-675.433583,-937.544122,0,6,0,0,0,0
5.044540,-666.414000,-67.930661,-667.612452,-818.931016,-563.148945,-686.503454,-937.513837,0,6,0,0,0,0
5.048538,-654.073000,-62.196100,-658.567194,-809.286781,-537.637909,-674.162454,-905.701578,0,6,0,0,0,0
5.052524,-656.782000,-57.698075,-659.478517,-808.999375,-555.612178,-674.472713,-915.300408,0,6,0,0,0,0
5.056508,-675.444000,-67.651587,-670.050967,-820.170363,-581.158515,-678.442426,-945.645163,0,6,0,0,0,0
5.060513,-665.210000,-63.723734,-665.210000,-814.730611,-565.237454,-673.005907,-939.005857,0,6,0,0,0,0
5.064493,-654.675000,-63.698978,-664.562227,-817.679434,-543.029013,-683.160046,-919.484122,0,6,0,0,0,0
5.068478,-663.705000,-59.816392,-669.996872,-820.416983,-568.521558,-697.587213,-928.514122,0,6,0,0,0,0
5.072485,-673.939000,-63.443953,-673.040161,-823.759251,-579.952834,-691.929555,-940.245912,0,6,0,0,0,0
5.076458,-665.210000,-68.228124,-665.809226,-816.528454,-566.434730,-670.307324,-919.235041,0,6,0,0,0,0
5.080621,-662.802000,-76.630661,-666.996581,-820.712545,-562.230816,-697.883583,-923.417313,0,6,0,0,0,0
5.084439,-665.511000,-78.138490,-666.709452,-816.829454,-561.347988,-691.597305,-934.813490,0,6,0,0,0,0
5.088422,-667.618000,-82.647832,-666.419548,-816.239689,-570.339325,-688.007296,-919.845694,0,6,0,0,0,0
5.092414,-665.812000,-83.844759,-671.205033,-818.329016,-561.948307,-699.094528,-926.726871,0,6,0,0,0,0
5.096782,-670.327000,-80.852441,-680.813453,-824.042578,-567.959902,-697.312833,-947.417993,0,6,0,0,0,0
5.100759,-654.374000,-67.602076,-665.759292,-810.786343,-533.748443,-681.059991,-911.993734,0,6,0,0,0,0
5.104732,-661.598000,-65.817295,-671.784840,-813.815375,-555.040436,-682.287139,-924.609775,0,6,0,0,0,0
5.108720,-662.200000,-63.416368,-671.188388,-812.619532,-559.234264,-688.286305,-932.700721,0,6,0,0,0,0
5.112717,-667.317000,-76.641271,-675.106937,-821.332219,-576.623343,-686.506926,-922.540272,0,6,0,0,0,0
5.116752,-652.267000,-72.101515,-665.449970,-815.571074,-546.906712,-675.954565,-915.877891,0,6,0,0,0,0
5.120694,-654.073000,-71.805466,-669.652873,-815.279591,-548.712712,-678.360250,-921.877701,0,6,0,0,0,0
5.124680,-666.414000,-76.338856,-675.402388,-820.728859,-559.257798,-686.803296,-940.808973,0,6,0,0,0,0
5.128674,-670.929000,-77.850929,-678.119711,-821.648173,-569.759178,-690.718611,-949.218225,0,6,0,0,0,0
5.132691,-671.832000,-80.855978,-678.723098,-825.847219,-562.879884,-697.618463,-941.733606,0,6,0,0,0,0
5.136645,-665.210000,-81.741295,-672.400711,-821.023062,-557.754479,-689.797092,-924.027966,0,6,0,0,0,0
5.140636,-663.404000,-78.734125,-677.485808,-828.206277,-556.247798,-701.484009,-928.213122,0,6,0,0,0,0
5.144627,-656.180000,-78.116564,-673.857164,-828.473289,-538.846952,-705.054342,-922.486912,0,6,0,0,0,0
5.148667,-664.006000,-77.234076,-677.788195,-832.403963,-558.945031,-707.183333,-938.400973,0,6,0,0,0,0
5.152618,-673.939000,-81.761807,-685.923518,-834.845950,-585.639895,-712.019009,-945.338395,0,6,0,0,0,0
5.156591,-662.802000,-76.030076,-680.179551,-829.102479,-563.428092,-706.878861,-923.417313,0,6,0,0,0,0
5.160602,-650.461000,-79.904881,-671.733519,-820.956446,-534.025909,-700.234870,-908.380292,0,6,0,0,0,0
5.164622,-667.317000,-87.752100,-675.706162,-823.130062,-565.847859,-692.503778,-931.826565,0,6,0,0,0,0
5.168581,-669.123000,-91.359857,-674.516033,-817.145408,-574.238877,-674.520167,-918.954231,0,6,0,0,0,0
5.172567,-667.317000,-83.848295,-674.807324,-823.130062,-568.242411,-709.294963,-919.844251,0,6,0,0,0,0
5.176540,-657.083000,-83.824247,-666.970227,-823.083839,-549.328160,-727.246166,-904.817326,0,6,0,0,0,0
