API v2.0.0
Time,P4,Pz,P3,PO8,PO7,Oz,TRG,Eye_Time,Eye_X,Eye_Y,Trial,Num_Sequences,Sequence,Tag,Label,Flash_Event
0.509155,-4648.042000,5176.599167,5190.143753,5184.424928,5178.104121,5174.492231,0.000000,0.000000,0.000000,0.000000,-1,-1,-1,-1,-1,-1
0.512488,-5993.211000,3831.430167,3844.974753,3839.255928,3832.935121,3829.323231,0.000000,0.000000,0.000000,0.000000,-1,-1,-1,-1,-1,-1
0.515821,-6842.633000,2982.008167,2995.552753,2989.833928,2983.513121,2979.901231,0.000000,0.000000,0.000000,0.000000,-1,-1,-1,-1,-1,-1
0.519155,-5691.308000,4133.333167,4146.877753,4141.158928,4134.838121,4131.226231,0.000000,0.000000,0.000000,0.000000,-1,-1,-1,-1,-1,-1
0.522488,-4436.138000,5388.503167,5402.047753,5396.328928,5390.008121,5386.396231,0.000000,0.000000,0.000000,0.000000,-1,-1,-1,-1,-1,-1
0.525821,-3269.161000,6555.480167,6569.024753,6563.305928,6556.985121,6553.373231,0.000000,0.000000,0.000000,0.000000,-1,-1,-1,-1,-1,-1
0.529155,-2424.254000,7400.387167,7413.931753,7408.212928,7401.892121,7398.280231,0.000000,0.000000,0.000000,0.000000,-1,-1,-1,-1,-1,-1
0.532488,-1509.515000,8315.126167,8328.670753,8322.951928,8316.631121,8313.019231,0.000000,0.000000,0.000000,0.000000,-1,-1,-1,-1,-1,-1
0.532488,-1509.515000,8315.126167,8328.670753,8322.951928,8316.631121,8313.019231,0.000000,0.000000,0.000000,0.000000,-1,-1,-1,-1,-1,-1
0.532488,-1509.515000,8315.126167,8328.670753,8322.951928,8316.631121,8313.019231,0.000000,0.000000,0.000000,0.000000,-1,-1,-1,-1,-1,-1
0.532488,-1509.515000,8315.126167,8328.670753,8322.951928,8316.631121,8313.019231,0.000000,0.000000,0.000000,0.000000,-1,-1,-1,-1,-1,-1
0.532488,-1509.515000,8315.126167,8328.670753,8322.951928,8316.631121,8313.019231,0.000000,0.000000,0.000000,0.000000,-1,-1,-1,-1,-1,-1
0.532488,-1509.515000,8315.126167,8328.670753,8322.951928,8316.631121,8313.019231,0.000000,0.000000,0.000000,0.000000,-1,-1,-1,-1,-1,-1
0.532488,-1509.515000,8315.126167,8328.670753,8322.951928,8316.631121,8313.019231,0.000000,0.000000,0.000000,0.000000,-1,-1,-1,-1,-1,-1
0.532488,-1509.515000,8315.126167,8328.670753,8322.951928,8316.631121,8313.019231,0.000000,0.000000,0.000000,0.000000,-1,-1,-1,-1,-1,-1
0.532488,-1509.515000,8315.126167,8328.670753,8322.951928,8316.631121,8313.019231,0.000000,0.000000,0.000000,0.000000,-1,-1,-1,-1,-1,-1
0.532488,-1509.515000,8315.126167,8328.670753,8322.951928,8316.631121,8313.019231,0.000000,0.000000,0.000000,0.000000,-1,-1,-1,-1,-1,-1
0.532488,-1509.515000,8315.126167,8328.670753,8322.951928,8316.631121,8313.019231,0.000000,0.000000,0.000000,0.000000,-1,-1,-1,-1,-1,-1
0.532488,-1509.515000,8315.126167,8328.670753,8322.951928,8316.631121,8313.019231,0.000000,0.000000,0.000000,0.000000,-1,-1,-1,-1,-1,-1
0.532488,-1509.515000,8315.126167,8328.670753,8322.951928,8316.631121,8313.019231,0.000000,0.000000,0.000000,0.000000,-1,-1,-1,-1,-1,-1
0.532488,-1509.515000,8315.126167,8328.670753,8322.951928,8316.631121,8313.019231,0.000000,0.000000,0.000000,0.000000,-1,-1,-1,-1,-1,-1
0.532488,-1509.515000,8315.126167,8328.670753,8322.951928,8316.631121,8313.019231,0.000000,0.000000,0.000000,0.000000,-1,-1,-1,-1,-1,-1
0.532488,-1509.515000,8315.126167,8328.670753,8322.951928,8316.631121,8313.019231,0.000000,0.000000,0.000000,0.000000,-1,-1,-1,-1,-1,-1
0.532488,-1509.515000,8315.126167,8328.670753,8322.951928,8316.631121,8313.019231,0.000000,0.000000,0.000000,0.000000,-1,-1,-1,-1,-1,-1
0.532488,-1509.515000,8315.126167,8328.670753,8322.951928,8316.631121,8313.019231,0.000000,0.000000,0.000000,0.000000,-1,-1,-1,-1,-1,-1
0.532488,-1509.515000,8315.126167,8328.670753,8322.951928,8316.631121,8313.019231,0.000000,0.000000,0.000000,0.000000,-1,-1,-1,-1,-1,-1
0.532488,-1509.515000,8315.126167,8328.670753,8322.951928,8316.631121,8313.019231,0.000000,0.000000,0.000000,0.000000,-1,-1,-1,-1,-1,-1
0.532488,-1509.515000,8315.126167,8328.670753,8322.951928,8316.631121,8313.019231,0.000000,0.000000,0.000000,0.000000,-1,-1,-1,-1,-1,-1
0.532488,-1509.515000,8315.126167,8328.670753,8322.951928,8316.631121,8313.019231,0.000000,0.000000,0.000000,0.000000,-1,-1,-1,-1,-1,-1
0.532488,-1509.515000,8315.126167,8328.670753,8322.951928,8316.631121,8313.019231,0.000000,0.000000,0.000000,0.000000,-1,-1,-1,-1,-1,-1
0.532488,-1509.515000,8315.126167,8328.670753,8322.951928,8316.631121,8313.019231,0.000000,0.000000,0.000000,0.000000,-1,-1,-1,-1,-1,-1
0.532488,-1509.515000,8315.126167,8328.670753,8322.951928,8316.631121,8313.019231,0.000000,0.000000,0.000000,0.000000,-1,-1,-1,-1,-1,-1
0.532488,-1509.515000,8315.126167,8328.670753,8322.951928,8316.631121,8313.019231,0.000000,0.000000,0.000000,0.000000,-1,-1,-1,-1,-1,-1
0.532488,-1509.515000,8315.126167,8328.670753,8322.951928,8316.631121,8313.019231,0.000000,0.000000,0.000000,0.000000,-1,-1,-1,-1,-1,-1
0.532488,-1509.515000,8315.126167,8328.670753,8322.951928,8316.631121,8313.019231,0.000000,0.000000,0.000000,0.000000,-1,-1,-1,-1,-1,-1
0.532488,-1509.515000,8315.126167,8328.670753,8322.951928,8316.631121,8313.019231,0.000000,0.000000,0.000000,0.000000,-1,-1,-1,-1,-1,-1
0.532488,-1509.515000,8315.126167,8328.670753,8322.951928,8316.631121,8313.019231,0.000000,0.000000,0.000000,0.000000,-1,-1,-1,-1,-1,-1
0.532488,-1509.515000,8315.126167,8328.670753,8322.951928,8316.631121,8313.019231,0.000000,0.000000,0.000000,0.000000,-1,-1,-1,-1,-1,-1
0.532488,-1509.515000,8315.126167,8328.670753,8322.951928,8316.631121,8313.019231,0.000000,0.000000,0.000000,0.000000,-1,-1,-1,-1,-1,-1
0.639234,-819.924000,9004.717167,9018.261753,9012.542928,9006.222121,9002.610231,0.000000,0.000000,0.000000,0.000000,-1,-1,-1,-1,-1,-1
0.642567,-177.590000,9647.051167,9660.595753,9654.876928,9648.556121,9644.944231,0.000000,0.000000,0.000000,0.000000,-1,-1,-1,-1,-1,-1
0.642567,-177.590000,9647.051167,9660.595753,9654.876928,9648.556121,9644.944231,0.000000,0.000000,0.000000,0.000000,-1,-1,-1,-1,-1,-1
0.649234,940.625000,10765.266167,10778.810753,10773.091928,10766.771121,10763.159231,0.000000,0.000000,0.000000,0.000000,-1,-1,-1,-1,-1,-1
0.652567,1263.297000,11087.938167,11101.482753,11095.763928,11089.443121,11085.831231,0.000000,0.000000,0.000000,0.000000,-1,-1,-1,-1,-1,-1
0.655900,1253.665000,11078.006333,11091.550506,11085.831856,11079.511241,11075.899462,0.000000,0.000000,0.000000,0.000000,-1,-1,-1,-1,-1,-1
0.659234,1133.867000,10958.508167,10972.052753,10966.333928,10960.013121,10956.401231,0.000000,0.000000,0.000000,0.000000,-1,-1,-1,-1,-1,-1
0.662567,982.464000,10806.805333,10820.349506,10814.630856,10808.310241,10804.698462,0.000000,0.000000,0.000000,0.000000,-1,-1,-1,-1,-1,-1
0.662567,982.464000,10806.805333,10820.349506,10814.630856,10808.310241,10804.698462,0.000000,0.000000,0.000000,0.000000,-1,-1,-1,-1,-1,-1
0.669234,568.890000,10393.231333,10406.775506,10401.056856,10394.736241,10391.124462,0.000000,0.000000,0.000000,0.000000,-1,-1,-1,-1,-1,-1
0.672567,364.812000,10189.453167,10202.997753,10197.278928,10190.958121,10187.346231,0.000000,0.000000,0.000000,0.000000,-1,-1,-1,-1,-1,-1
0.675900,155.015000,9979.656167,9993.200753,9987.481928,9981.161121,9977.549231,0.000000,0.000000,0.000000,0.000000,-1,-1,-1,-1,-1,-1
0.679234,-10.535000,9812.906833,9826.750013,9821.031711,9814.711483,9810.800154,0.000000,0.000000,0.000000,0.000000,-1,-1,-1,-1,-1,-1
0.682567,-164.647000,9659.994167,9673.538753,9667.819928,9661.499121,9657.887231,0.000000,0.000000,0.000000,0.000000,-1,-1,-1,-1,-1,-1
0.682567,-164.647000,9659.994167,9673.538753,9667.819928,9661.499121,9657.887231,0.000000,0.000000,0.000000,0.000000,-1,-1,-1,-1,-1,-1
0.689234,-395.815000,9428.826167,9442.370753,9436.651928,9430.331121,9426.719231,0.000000,0.000000,0.000000,0.000000,-1,-1,-1,-1,-1,-1
0.692567,-497.252000,9321.392499,9335.829558,9331.013916,9324.395931,9320.485925,0.000000,0.000000,0.000000,0.000000,-1,-1,-1,-1,-1,-1
0.695900,-601.398000,9223.243167,9236.787753,9231.068928,9224.748121,9221.136231,0.000000,0.000000,0.000000,0.000000,-1,-1,-1,-1,-1,-1
0.699234,-699.524000,9125.117167,9138.661753,9132.942928,9126.622121,9123.010231,0.000000,0.000000,0.000000,0.000000,-1,-1,-1,-1,-1,-1
0.699234,-699.524000,9125.117167,9138.661753,9132.942928,9126.622121,9123.010231,0.000000,0.000000,0.000000,0.000000,-1,-1,-1,-1,-1,-1
0.705900,-1385.503000,8240.348619,8313.968748,8328.135323,8210.035913,8273.956838,0.000000,0.000000,0.000000,0.000000,-1,-1,-1,-1,-1,-1
0.709234,-1764.462000,8060.179167,8073.723753,8068.004928,8061.684121,8058.072231,0.000000,0.000000,0.000000,0.000000,-1,-1,-1,-1,-1,-1
0.712567,-1463.462000,8344.988163,8360.912402,8357.602183,8349.489430,8345.882390,0.000000,0.000000,0.000000,0.000000,-1,-1,-1,-1,-1,-1
0.715900,-1224.167000,8600.474167,8614.018753,8608.299928,8601.979121,8598.367231,0.000000,0.000000,0.000000,0.000000,-1,-1,-1,-1,-1,-1
0.719234,-1039.654000,8779.889999,8794.628545,8789.512133,8689.631096,8778.983233,0.000000,0.000000,0.000000,0.000000,-1,-1,-1,-1,-1,-1
0.719234,-1039.654000,8779.889999,8794.628545,8789.512133,8689.631096,8778.983233,0.000000,0.000000,0.000000,0.000000,-1,-1,-1,-1,-1,-1
0.725900,-702.233000,9122.408167,9135.952753,9130.233928,9120.614448,9120.301231,0.000000,0.000000,0.000000,0.000000,-1,-1,-1,-1,-1,-1
0.729234,-601.398000,9218.745666,9232.584299,9226.867916,9223.248724,9216.939463,0.000000,0.000000,0.000000,0.000000,-1,-1,-1,-1,-1,-1
0.732567,-518.924000,9305.717167,9319.261753,9313.542928,9307.222121,9303.610231,0.000000,0.000000,0.000000,0.000000,-1,-1,-1,-1,-1,-1
0.735900,-511.700000,9299.148830,9313.274896,9307.863822,9301.851189,9297.644390,0.000000,0.000000,0.000000,0.000000,-1,-1,-1,-1,-1,-1
0.739234,-468.356000,9356.285167,9369.829753,9364.110928,9357.790121,9354.178231,0.000000,0.000000,0.000000,0.000000,-1,-1,-1,-1,-1,-1
0.739234,-468.356000,9356.285167,9369.829753,9364.110928,9357.790121,9354.178231,0.000000,0.000000,0.000000,0.000000,-1,-1,-1,-1,-1,-1
0.745900,-602.000000,9222.641167,9236.185753,9230.466928,9224.146121,9220.534231,0.000000,0.000000,0.000000,0.000000,-1,-1,-1,-1,-1,-1
0.749234,-573.706000,9246.137832,9259.675805,9253.659700,9252.440121,9243.732156,0.000000,0.000000,0.000000,0.000000,-1,-1,-1,-1,-1,-1
0.752567,-663.705000,9135.450327,9150.160765,9145.056221,9127.954997,9134.248164,0.000000,0.000000,0.000000,0.000000,-1,-1,-1,-1,-1,-1
0.755900,-236.285000,9588.356167,9601.900753,9596.181928,9589.861121,9586.249231,0.000000,0.000000,0.000000,0.000000,-1,-1,-1,-1,-1,-1
0.759234,-637.518000,9014.718959,9033.430305,9028.708910,9016.797263,9015.646687,0.000000,0.000000,0.000000,0.000000,-1,-1,-1,-1,-1,-1
0.759234,-637.518000,9014.718959,9033.430305,9028.708910,9016.797263,9015.646687,0.000000,0.000000,0.000000,0.000000,-1,-1,-1,-1,-1,-1
0.765900,-404.544000,8996.132733,9018.700724,9014.123316,9051.850902,8998.313485,0.000000,0.000000,0.000000,0.000000,-1,-1,-1,-1,-1,-1
0.769234,-1349.082000,8475.559167,8489.103753,8483.384928,8477.064121,8473.452231,0.000000,0.000000,0.000000,0.000000,-1,-1,-1,-1,-1,-1
0.772567,-9413.775000,-6580.049494,-6345.253060,-6308.627511,-6516.340880,-6446.960178,0.000000,0.000000,0.000000,0.000000,-1,-1,-1,-1,-1,-1
0.775900,6146.420000,15971.061167,15984.605753,15978.886928,15972.566121,15968.954231,0.000000,0.000000,0.000000,0.000000,-1,-1,-1,-1,-1,-1
0.775900,6146.420000,15971.061167,15984.605753,15978.886928,15972.566121,15968.954231,0.000000,0.000000,0.000000,0.000000,-1,-1,-1,-1,-1,-1
0.779234,-9545.914000,-4461.039292,-4298.801532,-4273.044685,-4359.500927,-4363.505730,0.000000,0.000000,0.000000,0.000000,-1,-1,-1,-1,-1,-1
0.785900,-9862.867000,-7701.068153,-7524.845440,-7493.796704,-8711.030480,-7603.807032,0.000000,0.000000,0.000000,0.000000,-1,-1,-1,-1,-1,-1
0.789234,-7680.015000,-12304.045765,-12172.006853,-12162.794120,-17339.728091,-12245.498454,0.000000,0.000000,0.000000,0.000000,-1,-1,-1,-1,-1,-1
0.792567,-5364.422000,-15189.363000,-15202.908000,-15197.189000,-15151.883687,-15187.256000,0.000000,0.000000,0.000000,0.000000,-1,-1,-1,-1,-1,-1
0.795900,-5542.614000,-14854.839878,-14867.377785,-14862.557550,-15315.381599,-14853.142601,0.000000,0.000000,0.000000,0.000000,-1,-1,-1,-1,-1,-1
0.795900,-5542.614000,-14854.839878,-14867.377785,-14862.557550,-15315.381599,-14853.142601,0.000000,0.000000,0.000000,0.000000,-1,-1,-1,-1,-1,-1
0.802567,-6026.020000,-15605.397442,-15619.504640,-15614.228128,-15763.701717,-15605.141718,0.000000,0.000000,0.000000,0.000000,-1,-1,-1,-1,-1,-1
0.805900,-6184.948000,-16009.889000,-16023.434000,-16017.715000,-16011.394000,-16007.782000,0.000000,0.000000,0.000000,0.000000,-1,-1,-1,-1,-1,-1
0.809234,1245.237000,-8530.231488,-8547.311245,-8538.318153,-8537.126738,-8529.034405,0.000000,0.000000,0.000000,0.000000,-1,-1,-1,-1,-1,-1
0.812567,4260.655000,-5564.286000,-5569.724337,-5572.112000,-5565.791000,-5562.179000,0.000000,0.000000,0.000000,0.000000,-1,-1,-1,-1,-1,-1
0.815900,8828.330000,-996.611000,-1010.156000,-1004.437000,-989.119620,-994.504000,0.000000,0.000000,0.000000,0.000000,-1,-1,-1,-1,-1,-1
0.815900,8828.330000,-996.611000,-1010.156000,-1004.437000,-989.119620,-994.504000,0.000000,0.000000,0.000000,0.000000,-1,-1,-1,-1,-1,-1
0.822567,9863.168000,38.227000,24.682000,30.401000,38.221397,40.334000,0.000000,0.000000,0.000000,0.000000,-1,-1,-1,-1,-1,-1
0.825900,-2381.813000,-12196.259831,-12174.661492,-12156.365986,-12208.259000,-12194.155081,0.000000,0.000000,0.000000,0.000000,-1,-1,-1,-1,-1,-1
0.829234,9863.168000,38.227000,24.682000,30.401000,36.722000,40.334000,0.000000,0.000000,0.000000,0.000000,-1,-1,-1,-1,-1,-1
0.832567,-3063.879000,-12888.220333,-12902.365000,-12861.237476,-12878.329827,-12886.113462,0.000000,0.000000,0.000000,0.000000,-1,-1,-1,-1,-1,-1
0.835900,-4540.886000,-14365.827000,-14201.926162,-14349.647221,-14367.332000,-14363.720000,0.000000,0.000000,0.000000,0.000000,-1,-1,-1,-1,-1,-1
0.835900,-4540.886000,-14365.827000,-14201.926162,-14349.647221,-14367.332000,-14363.720000,0.000000,0.000000,0.000000,0.000000,-1,-1,-1,-1,-1,-1
0.842567,-4087.881000,-13912.822000,-12163.317995,-12387.278879,-13914.327000,-13910.715000,0.000000,0.000000,0.000000,0.000000,0,6,0,0,0,0
0.845900,6967.548000,-2857.393000,1748.958975,1852.816753,-2703.260626,-2855.286000,0.000000,0.000000,0.000000,0.000000,0,6,0,0,0,0
0.849234,-9862.867000,-19687.808000,-16565.876032,-15874.214086,-19689.313000,-19685.701000,0.000000,0.000000,0.000000,0.000000,0,6,0,0,0,0
0.852567,-7949.410000,-17774.351000,-14035.411929,-7570.418767,-17673.297268,-17772.244000,0.000000,0.000000,0.000000,0.000000,0,6,0,0,0,0
0.855900,-9862.867000,-19687.808000,-15014.500996,-14188.708341,-19598.149683,-19685.701000,0.000000,0.000000,0.000000,0.000000,0,6,0,0,0,0
0.855900,-9862.867000,-19687.808000,-15014.500996,-14188.708341,-19598.149683,-19685.701000,0.000000,0.000000,0.000000,0.000000,0,6,0,0,0,0
0.862567,-3067.792000,-12892.733000,-12450.503411,460.757413,-7984.913431,-12890.626000,0.000000,0.000000,0.000000,0.000000,0,6,0,0,0,0
0.865900,-9862.867000,-19687.808000,-19701.353000,-12312.056583,-11696.029366,-19685.701000,0.000000,0.000000,0.000000,0.000000,0,6,0,0,0,0
0.869234,-8053.857000,-17878.798000,-17791.760334,-4468.593935,-17880.303000,-17876.691000,0.000000,0.000000,0.000000,0.000000,0,6,0,0,0,0
0.872567,-9862.867000,-19687.808000,-19701.353000,-13354.507528,-16805.673329,-19685.701000,0.000000,0.000000,0.000000,0.000000,0,6,0,0,0,0
0.872567,-9862.867000,-19687.808000,-19701.353000,-13354.507528,-16805.673329,-19685.701000,0.000000,0.000000,0.000000,0.000000,0,6,0,0,0,0
0.879234,-9862.867000,-19687.808000,-19654.514505,-10039.909619,-19689.313000,-19685.701000,0.000000,0.000000,0.000000,0.000000,0,6,0,0,0,0
0.882567,-4333.196000,-14158.137000,-14171.682000,-3816.471611,-3337.296733,-14156.030000,0.000000,0.000000,0.000000,0.000000,0,6,0,0,0,0
0.885900,-9306.619000,-19131.560000,-19116.581557,-9276.611776,-16172.356340,-19129.453000,0.000000,0.000000,0.000000,0.000000,0,6,0,0,0,0
0.885900,-9306.619000,-19131.560000,-19116.581557,-9276.611776,-16172.356340,-19129.453000,0.000000,0.000000,0.000000,0.000000,0,6,0,0,0,0
0.892567,-2643.081000,-12468.022000,-12475.862311,-1514.209252,533.540780,-12465.915000,0.000000,0.000000,0.000000,0.000000,0,6,0,0,0,0
0.895900,-9677.150000,-19502.091000,-19515.636000,-10775.114308,-19503.596000,-19499.984000,0.000000,0.000000,0.000000,0.000000,0,6,0,0,0,0
0.895900,-9677.150000,-19502.091000,-19515.636000,-10775.114308,-19503.596000,-19499.984000,0.000000,0.000000,0.000000,0.000000,0,6,0,0,0,0
0.902567,-9862.867000,-19687.808000,-19701.052753,-13672.584097,-11586.873288,-19685.701000,0.000000,0.000000,0.000000,0.000000,0,6,0,0,0,0
0.905900,-5073.355000,-14898.296000,-14911.841000,-3624.906321,-14899.801000,-14896.189000,0.000000,0.000000,0.000000,0.000000,0,6,0,0,0,0
0.909234,-9862.867000,-19687.808000,-19701.353000,-11536.069783,-5542.205563,-19685.701000,0.000000,0.000000,0.000000,0.000000,0,6,0,0,0,0
0.912567,-1684.998000,-11509.939000,-11523.484000,-11360.827221,1185.746860,-11507.832000,0.000000,0.000000,0.000000,0.000000,0,6,0,0,0,0
0.915900,-1862.287000,-11687.228000,-11700.773000,-11601.731535,3159.792198,-11685.121000,0.000000,0.000000,0.000000,0.000000,0,6,0,0,0,0
0.919234,-9862.867000,-19687.808000,-19701.353000,-19695.634000,-11203.027741,-19685.701000,0.000000,0.000000,0.000000,0.000000,0,6,0,0,0,0
0.922567,-7745.031000,-17569.972000,-17583.517000,-17572.096628,-9682.551374,-17567.865000,0.000000,0.000000,0.000000,0.000000,0,6,0,0,0,0
0.922567,-7745.031000,-17569.972000,-17583.517000,-17572.096628,-9682.551374,-17567.865000,0.000000,0.000000,0.000000,0.000000,0,6,0,0,0,0
0.929234,6310.164000,-3514.777000,-3528.322000,-3522.603000,8414.117404,-3512.670000,0.000000,0.000000,0.000000,0.000000,0,6,0,0,0,0
0.932567,-7390.453000,-17215.394000,-17228.939000,-17205.515738,-11164.434412,-17213.287000,0.000000,0.000000,0.000000,0.000000,0,6,0,0,0,0
0.932567,-7390.453000,-17215.394000,-17228.939000,-17205.515738,-11164.434412,-17213.287000,0.000000,0.000000,0.000000,0.000000,0,6,0,0,0,0
0.939234,-9862.867000,-19687.808000,-19701.353000,-19687.832122,-12214.520733,-19685.701000,0.000000,0.000000,0.000000,0.000000,0,6,0,0,0,0
0.942567,-6721.330000,-16546.271000,-16559.816000,-16554.097000,-15101.457975,-16544.164000,0.000000,0.000000,0.000000,0.000000,0,6,0,0,0,0
0.942567,-6721.330000,-16546.271000,-16559.816000,-16554.097000,-15101.457975,-16544.164000,0.000000,0.000000,0.000000,0.000000,0,6,0,0,0,0
0.949234,-9862.867000,-19687.808000,-19701.353000,-19695.634000,-13369.955805,-19685.701000,0.000000,0.000000,0.000000,0.000000,0,6,0,0,0,0
0.952567,-8181.180000,-18005.521333,-18019.666000,-18013.947000,-15489.539237,-18003.414462,0.000000,0.000000,0.000000,0.000000,0,6,0,0,0,0
0.952567,-8181.180000,-18005.521333,-18019.666000,-18013.947000,-15489.539237,-18003.414462,0.000000,0.000000,0.000000,0.000000,0,6,0,0,0,0
0.959234,-1738.275000,-11559.917833,-11576.761000,-11571.042000,-4704.081608,-11561.109000,0.000000,0.000000,0.000000,0.000000,0,6,0,0,0,0
0.962567,-2551.878000,-12376.819000,-12389.163013,-12384.645000,-1735.606454,-12374.412231,0.000000,0.000000,0.000000,0.000000,0,6,0,0,0,0
0.962567,-2551.878000,-12376.819000,-12389.163013,-12384.645000,-1735.606454,-12374.412231,0.000000,0.000000,0.000000,0.000000,0,6,0,0,0,0
0.969234,-7790.482000,-17615.423000,-17628.367506,-17623.249000,-15857.236071,-17608.219925,0.000000,0.000000,0.000000,0.000000,0,6,0,0,0,0
0.972567,-9862.867000,-19687.808000,-19701.353000,-19695.634000,-16341.160242,-19685.701000,0.000000,0.000000,0.000000,0.000000,0,6,0,0,0,0
0.972567,-9862.867000,-19687.808000,-19701.353000,-19695.634000,-16341.160242,-19685.701000,0.000000,0.000000,0.000000,0.000000,0,6,0,0,0,0
0.979234,-9862.867000,-19687.808000,-19700.452260,-19695.634000,-12619.357833,-19685.701000,0.000000,0.000000,0.000000,0.000000,0,6,0,0,0,0
0.982567,884.639000,-8628.175426,-8903.405543,-8948.128000,-691.226898,-8587.165379,0.000000,0.000000,0.000000,0.000000,0,6,0,0,0,0
0.982567,884.639000,-8628.175426,-8903.405543,-8948.128000,-691.226898,-8587.165379,0.000000,0.000000,0.000000,0.000000,0,6,0,0,0,0
0.989234,-6601.532000,-16263.663461,-16413.596285,-16434.299000,-13282.843550,-16334.435269,0.000000,0.000000,0.000000,0.000000,0,6,0,0,0,0
0.992567,2624.118000,-6269.540445,-6610.872002,-7208.649000,805.949601,-5249.617286,0.000000,0.000000,0.000000,0.000000,0,6,0,0,0,0
0.995900,-9006.221000,-18831.162000,-18844.707000,-18838.988000,-13797.093232,-18829.055000,0.000000,0.000000,0.000000,0.000000,0,6,0,0,0,0
0.999234,6666.247000,-1763.569169,-2152.300739,-3166.520000,4535.604336,-903.222645,0.000000,0.000000,0.000000,0.000000,0,6,0,0,0,0
1.002567,-9862.867000,-17579.379499,-18767.585560,-19695.634000,-15291.582574,-17046.533808,0.000000,0.000000,0.000000,0.000000,0,6,0,0,0,0
1.005900,-1058.918000,-10522.559748,-10766.796657,-10891.685000,-8332.491234,-10255.534342,0.000000,0.000000,0.000000,0.000000,0,6,0,0,0,0
1.009234,-6929.321000,-14222.468732,-14789.180818,-16762.088000,-9032.074886,-11874.012371,0.000000,0.000000,0.000000,0.000000,0,6,0,0,0,0
1.012567,1921.283000,-7903.658000,-7917.203000,-7911.484000,-2198.759163,-6182.075419,0.000000,0.000000,0.000000,0.000000,0,6,0,0,0,0
1.015900,304.913000,-7460.772178,-7958.778717,-9527.553928,-2787.442687,-5748.024748,0.000000,0.000000,0.000000,0.000000,0,6,0,0,0,0
1.019234,-9862.867000,-15265.565116,-17281.063826,-19695.634000,-14414.135644,-14453.231290,0.000000,0.000000,0.000000,0.000000,0,6,0,0,0,0
1.019234,-9862.867000,-15265.565116,-17281.063826,-19695.634000,-14414.135644,-14453.231290,0.000000,0.000000,0.000000,0.000000,0,6,0,0,0,0
1.025900,-9862.867000,-17205.787077,-17726.630026,-19694.433711,-13930.730159,-15048.872499,0.000000,0.000000,0.000000,0.000000,0,6,0,0,0,0
1.029234,9863.168000,2409.909230,2204.473515,30.401000,6665.554667,4852.527427,0.000000,0.000000,0.000000,0.000000,0,6,0,0,0,0
1.032567,-7173.432000,-15251.543585,-15831.948213,-16999.897483,-12592.551436,-13940.419754,0.000000,0.000000,0.000000,0.000000,0,6,0,0,0,0
1.035900,-7259.819000,-12308.413866,-14651.894358,-17092.586000,-13287.993362,-12544.748304,0.000000,0.000000,0.000000,0.000000,0,6,0,0,0,0
1.039234,-7072.597000,-11887.021977,-14076.153044,-16893.661183,-12808.988770,-12076.043115,0.000000,0.000000,0.000000,0.000000,0,6,0,0,0,0
1.039234,-7072.597000,-11887.021977,-14076.153044,-16893.661183,-12808.988770,-12076.043115,0.000000,0.000000,0.000000,0.000000,0,6,0,0,0,0
1.045900,9863.168000,4539.925736,4566.514816,99.117542,7010.116021,5885.831528,0.000000,0.000000,0.000000,0.000000,0,6,0,0,0,0
1.049234,-9862.867000,-17169.807069,-17469.919042,-19665.926849,-15633.145135,-16645.742516,0.000000,0.000000,0.000000,0.000000,0,6,0,0,0,0
1.052567,-3545.479000,-8506.522512,-10137.997222,-13378.246000,-9802.761173,-9813.351196,0.000000,0.000000,0.000000,0.000000,0,6,0,0,0,0
1.055900,-9862.867000,-13582.600217,-14614.272058,-19640.420709,-14054.280444,-14047.943461,0.000000,0.000000,0.000000,0.000000,0,6,0,0,0,0
1.059234,4664.898000,-2699.310249,-2576.753728,-5167.869000,-56.102347,-2463.911062,0.000000,0.000000,0.000000,0.000000,0,6,0,0,0,0
1.059234,4664.898000,-2699.310249,-2576.753728,-5167.869000,-56.102347,-2463.911062,0.000000,0.000000,0.000000,0.000000,0,6,0,0,0,0
1.065900,-2229.206000,-8827.639734,-8102.032726,-11757.099609,-6076.357969,-8461.705441,0.000000,0.000000,0.000000,0.000000,0,6,0,0,0,0
1.069234,-1799.679000,-7137.613101,-7946.631023,-11632.446000,-7086.851529,-8692.569777,0.000000,0.000000,0.000000,0.000000,0,6,0,0,0,0
1.072567,-9151.905000,-13396.646508,-13722.261259,-18814.531043,-13028.145265,-14127.772357,0.000000,0.000000,0.000000,0.000000,0,6,0,0,0,0
1.075900,9863.168000,3418.848636,4023.968912,618.542581,6331.788969,3577.909196,0.000000,0.000000,0.000000,0.000000,0,6,0,0,0,0
1.079234,-4549.916000,-11402.908294,-10039.327607,-12852.914745,-7569.700888,-10442.777047,0.000000,0.000000,0.000000,0.000000,0,6,0,0,0,0
1.082567,8725.087000,3803.621498,4343.585956,773.772914,5873.834297,3751.318026,0.000000,0.000000,0.000000,0.000000,0,6,0,0,0,0
1.085900,-7406.707000,-11374.102609,-12473.371162,-17126.946912,-11717.472419,-13099.322285,0.000000,0.000000,0.000000,0.000000,0,6,0,0,0,0
1.089234,-3599.057000,-7382.354898,-8167.611778,-12584.119936,-7469.299678,-8545.846754,0.000000,0.000000,0.000000,0.000000,0,6,0,0,0,0
1.092567,7484.967000,2813.562557,2851.258674,447.072798,4584.234207,2700.951869,0.000000,0.000000,0.000000,0.000000,0,6,0,0,0,0
1.095900,-3528.021000,-9548.675763,-8752.014467,-10974.313514,-6504.623264,-9181.066763,0.000000,0.000000,0.000000,0.000000,0,6,0,0,0,0
1.095900,-3528.021000,-9548.675763,-8752.014467,-10974.313514,-6504.623264,-9181.066763,0.000000,0.000000,0.000000,0.000000,0,6,0,0,0,0
1.102567,-9862.867000,-10469.729811,-11684.764371,-15163.342961,-11431.235914,-11550.866825,0.000000,0.000000,0.000000,0.000000,0,6,0,0,0,0
1.105900,2446.227000,-1478.292432,-2774.463752,-6489.924161,-2470.594552,-3201.123150,0.000000,0.000000,0.000000,0.000000,0,6,0,0,0,0
1.109234,634.508000,515.773972,319.248897,-894.360038,1015.354754,415.077016,0.000000,0.000000,0.000000,0.000000,0,6,0,0,0,0
1.112567,5580.239000,3649.012041,3739.426083,3062.933020,4647.614273,3604.760605,0.000000,0.000000,0.000000,0.000000,0,6,0,0,0,0
1.115900,3974.404000,1493.882244,1418.103042,-58.866912,2404.535689,1053.753620,0.000000,0.000000,0.000000,0.000000,0,6,0,0,0,0
1.115900,3974.404000,1493.882244,1418.103042,-58.866912,2404.535689,1053.753620,0.000000,0.000000,0.000000,0.000000,0,6,0,0,0,0
1.122567,-723.905000,-1429.413001,-1984.340920,-4120.122557,-1586.357963,-1629.507463,0.000000,0.000000,0.000000,0.000000,0,6,0,0,0,0
1.125900,-7857.906000,-7275.329695,-7080.266878,-7398.195336,-6093.715881,-6653.133971,0.000000,0.000000,0.000000,0.000000,0,6,0,0,0,0
1.129234,9863.168000,10933.573254,11374.309969,11589.783641,12896.747338,11544.273135,0.000000,0.000000,0.000000,0.000000,0,6,0,0,0,0
1.132567,-4505.067000,-4551.841011,-4669.602227,-4535.074224,-4619.620905,-4407.642041,0.000000,0.000000,0.000000,0.000000,0,6,0,0,0,0
1.135900,-2469.705000,-784.941100,-1237.192029,-1612.698697,-1306.473065,-944.180030,0.000000,0.000000,0.000000,0.000000,0,6,0,0,0,0
1.135900,-2469.705000,-784.941100,-1237.192029,-1612.698697,-1306.473065,-944.180030,0.000000,0.000000,0.000000,0.000000,0,6,0,0,0,0
1.142567,-1897.805000,-1464.245897,-1536.307895,-1231.044494,-1165.499668,-1235.615049,0.000000,0.000000,0.000000,0.000000,0,6,0,0,0,0
1.145900,9863.168000,12069.941857,12136.336259,13305.896753,12601.066315,12480.152278,0.000000,0.000000,0.000000,0.000000,0,6,0,0,0,0
1.149234,-7538.846000,783.929643,1298.016792,2293.620928,2079.183863,1121.483415,0.000000,0.000000,0.000000,0.000000,0,6,0,0,0,0
1.152567,-3278.191000,5368.404720,4772.625760,5309.876369,4370.831159,4655.498107,0.000000,0.000000,0.000000,0.000000,0,6,0,0,0,0
1.155900,-8971.305000,853.336167,866.880753,861.161928,854.841121,851.229231,0.000000,0.000000,0.000000,0.000000,0,6,0,0,0,0
1.159234,2260.209000,8354.922614,8596.016238,11101.537335,8895.039254,9128.518711,0.000000,0.000000,0.000000,0.000000,0,6,0,0,0,0
1.162567,4258.247000,13589.062549,14096.432753,13971.285178,14084.393121,14080.781231,0.000000,0.000000,0.000000,0.000000,0,6,0,0,0,0
1.165900,2187.668000,10410.898953,10277.516840,11768.074250,9756.922257,10912.148003,0.000000,0.000000,0.000000,0.000000,0,6,0,0,0,0
1.169234,-3291.134000,2669.254249,1168.731449,2896.055416,-1033.342498,2135.885859,0.000000,0.000000,0.000000,0.000000,0,6,0,0,0,0
1.172567,-8118.572000,1061.127513,246.002630,975.117085,-1032.723229,1133.201857,0.000000,0.000000,0.000000,0.000000,0,6,0,0,0,0
1.172567,-8118.572000,1061.127513,246.002630,975.117085,-1032.723229,1133.201857,0.000000,0.000000,0.000000,0.000000,0,6,0,0,0,0
1.179234,-3646.314000,2938.627231,3425.698306,6186.152928,3284.197276,5087.758614,0.000000,0.000000,0.000000,0.000000,0,6,0,0,0,0
1.182567,9026.388000,15237.137142,14848.473023,17563.743161,14064.060923,16288.294544,0.000000,0.000000,0.000000,0.000000,0,6,0,0,0,0
1.185900,-7103.600000,-348.353396,-2844.299390,-22.195324,-6367.096357,-544.652004,0.000000,0.000000,0.000000,0.000000,0,6,0,0,0,0
1.189234,-3977.113000,2759.843767,440.117409,3624.316860,-2538.891717,2841.734809,0.000000,0.000000,0.000000,0.000000,0,6,0,0,0,0
1.192567,7538.545000,16042.120186,15966.771944,17371.011928,15515.935030,16766.936867,0.000000,0.000000,0.000000,0.000000,0,6,0,0,0,0
1.192567,7538.545000,16042.120186,15966.771944,17371.011928,15515.935030,16766.936867,0.000000,0.000000,0.000000,0.000000,0,6,0,0,0,0
1.199234,9863.168000,17126.032558,17206.002888,19695.634928,16035.584321,18239.316304,0.000000,0.000000,0.000000,0.000000,0,6,0,0,0,0
1.202567,-9862.867000,-1625.244044,-3129.232798,-1196.480778,-5970.733131,-1681.568614,0.000000,0.000000,0.000000,0.000000,0,6,0,0,0,0
1.205900,1024.604000,6199.128896,4289.187077,8743.362104,672.545662,6657.565233,0.000000,0.000000,0.000000,0.000000,0,6,0,0,0,0
1.209234,3385.347000,12573.741682,12564.491104,13217.813928,12265.073944,13023.823001,0.000000,0.000000,0.000000,0.000000,0,6,0,0,0,0
1.212567,6101.872000,11650.588984,12559.579425,15816.710612,12560.073326,14522.386131,0.000000,0.000000,0.000000,0.000000,0,6,0,0,0,0
1.212567,6101.872000,11650.588984,12559.579425,15816.710612,12560.073326,14522.386131,0.000000,0.000000,0.000000,0.000000,0,6,0,0,0,0
1.219234,-9862.867000,-2445.888072,-4132.357241,-932.417211,-6790.603228,-2106.341434,0.000000,0.000000,0.000000,0.000000,0,6,0,0,0,0
1.222567,2685.221000,9177.213875,7021.685029,12065.178997,4224.501619,9924.045323,0.000000,0.000000,0.000000,0.000000,0,6,0,0,0,0
1.225900,-6754.440000,-1835.672999,-1373.717722,2846.971307,-1148.195860,816.828260,0.000000,0.000000,0.000000,0.000000,0,6,0,0,0,0
1.229234,9863.168000,12903.478722,14691.135983,19695.634928,15633.446135,17357.695369,0.000000,0.000000,0.000000,0.000000,0,6,0,0,0,0
1.232567,-5356.596000,-3360.605026,-2391.959441,1973.268487,-2017.439622,-592.665399,0.000000,0.000000,0.000000,0.000000,0,6,0,0,0,0
1.235900,4365.403000,1735.264375,460.693819,2600.978258,-865.092335,2460.969882,0.000000,0.000000,0.000000,0.000000,0,6,0,0,0,0
1.239234,2734.886000,-1737.728896,-3190.183663,866.036120,-3713.119429,-437.270659,0.000000,0.000000,0.000000,0.000000,0,6,0,0,0,0
1.242567,954.170000,-5305.751820,-5069.981096,-517.984385,-3565.011556,-2549.831057,0.000000,0.000000,0.000000,0.000000,0,6,0,0,0,0
1.245900,9863.168000,3756.161216,4513.671386,8651.776387,6575.590867,6908.643711,0.000000,0.000000,0.000000,0.000000,0,6,0,0,0,0
1.249234,-2519.069000,-7152.994267,-6470.316429,-2819.141235,-4513.566447,-4229.851277,0.000000,0.000000,0.000000,0.000000,0,6,0,0,0,0
1.252567,7304.969000,3232.631700,2645.139205,5499.134289,3623.650302,4698.176872,0.000000,0.000000,0.000000,0.000000,0,6,0,0,0,0
1.255900,-6094.648000,-5202.943455,-5462.628559,-4768.028649,-5107.745113,-4609.292090,0.000000,0.000000,0.000000,0.000000,0,6,0,0,0,0
1.259234,8283.520000,3546.152208,4170.439564,7264.174617,6133.385179,6021.462341,0.000000,0.000000,0.000000,0.000000,0,6,0,0,0,0
1.262567,6133.477000,3796.275612,4344.006280,6909.763872,6002.129852,5688.619650,0.000000,0.000000,0.000000,0.000000,0,6,0,0,0,0
1.265900,5262.383000,5903.426819,5971.265612,7059.515616,6637.329744,6525.610004,0.000000,0.000000,0.000000,0.000000,0,6,0,0,0,0
1.269234,838.887000,-1523.500394,-2414.286700,-1067.771982,-2115.524194,-749.289713,0.000000,0.000000,0.000000,0.000000,0,6,0,0,0,0
1.269234,838.887000,-1523.500394,-2414.286700,-1067.771982,-2115.524194,-749.289713,0.000000,0.000000,0.000000,0.000000,0,6,0,0,0,0
1.275900,9863.168000,9032.929303,9219.438936,9998.800650,9978.321664,9985.473794,0.000000,0.000000,0.000000,0.000000,0,6,0,0,0,0
1.279234,1863.491000,1302.202867,1887.810988,2597.167615,2804.512349,2413.267537,0.000000,0.000000,0.000000,0.000000,0,6,0,0,0,0
1.282567,9863.168000,10313.517774,10447.448205,10717.473653,10939.434928,10708.516873,0.000000,0.000000,0.000000,0.000000,0,6,0,0,0,0
1.285900,1778.007000,902.193625,749.661829,708.549554,1187.544592,1305.870661,0.000000,0.000000,0.000000,0.000000,0,6,0,0,0,0
1.289234,4666.704000,5281.362479,5238.073594,5232.640235,5604.426676,5507.256568,0.000000,0.000000,0.000000,0.000000,0,6,0,0,0,0
1.289234,4666.704000,5281.362479,5238.073594,5232.640235,5604.426676,5507.256568,0.000000,0.000000,0.000000,0.000000,0,6,0,0,0,0
1.295900,9284.646000,9702.313933,10447.201475,10838.119961,11288.139827,10613.522438,0.000000,0.000000,0.000000,0.000000,0,6,0,0,0,0
1.299234,9863.168000,7316.682895,8028.960512,8123.949325,8610.871903,8137.397268,0.000000,0.000000,0.000000,0.000000,0,6,0,0,0,0
1.302567,1706.068000,8888.877039,8997.860938,9093.246284,9592.894471,9270.141801,0.000000,0.000000,0.000000,0.000000,0,6,0,0,0,0
1.305900,8928.563000,10633.715572,10506.960244,12139.035843,10604.288716,10882.458020,0.000000,0.000000,0.000000,0.000000,0,6,0,0,0,0
1.309234,9863.168000,17313.128603,17607.432813,19283.035604,18107.450636,18401.491389,0.000000,0.000000,0.000000,0.000000,0,6,0,0,0,0
1.309234,9863.168000,17313.128603,17607.432813,19283.035604,18107.450636,18401.491389,0.000000,0.000000,0.000000,0.000000,0,6,0,0,0,0
1.315900,8742.244000,11556.180502,11040.032494,14962.141289,10968.548172,12035.207607,0.000000,0.000000,0.000000,0.000000,0,6,0,0,0,0
1.319234,3305.582000,12933.532453,12924.587615,12347.058516,12428.511084,12912.582245,0.000000,0.000000,0.000000,0.000000,0,6,0,0,0,0
1.322567,9863.168000,9129.775492,7181.363894,9183.804460,5678.351901,8070.548758,0.000000,0.000000,0.000000,0.000000,0,6,0,0,0,0
1.325900,9087.190000,17677.716874,17841.484931,18681.699645,17875.453747,18132.722713,0.000000,0.000000,0.000000,0.000000,0,6,0,0,0,0
1.329234,9863.168000,9112.385155,9011.668174,14074.981892,9074.785232,10179.424405,0.000000,0.000000,0.000000,0.000000,0,6,0,0,0,0
1.332567,7510.853000,12980.713799,13085.534688,16235.153164,13021.435632,13845.573706,0.000000,0.000000,0.000000,0.000000,0,6,0,0,0,0
1.335900,8176.966000,15429.336389,14109.842079,15328.287507,12226.536520,14925.967608,0.000000,0.000000,0.000000,0.000000,0,6,0,0,0,0
1.339234,7557.508000,15153.787304,13969.878163,15665.759865,12005.918033,14968.399789,0.000000,0.000000,0.000000,0.000000,0,6,0,0,0,0
1.342567,6944.070000,10126.201922,9959.748509,13142.662161,9685.866746,11245.157104,0.000000,0.000000,0.000000,0.000000,0,6,0,0,0,0
1.345900,9863.168000,13618.881225,14053.111607,16928.068703,13656.041810,14995.215061,0.000000,0.000000,0.000000,0.000000,0,6,0,0,0,0
1.345900,9863.168000,13618.881225,14053.111607,16928.068703,13656.041810,14995.215061,0.000000,0.000000,0.000000,0.000000,0,6,0,0,0,0
1.352567,3779.657000,7538.968226,6403.513481,6816.087947,4661.901999,7069.323147,0.000000,0.000000,0.000000,0.000000,0,6,0,0,0,0
1.355900,-9862.867000,-15926.697773,-17742.543104,-17740.363316,-19076.359642,-16401.130927,0.000000,0.000000,0.000000,0.000000,0,6,0,0,0,0
1.359234,-446.684000,-6722.496990,-6938.319309,-5584.820882,-7290.230270,-6177.070192,0.000000,0.000000,0.000000,0.000000,0,6,0,0,0,0
1.362567,285.047000,319.527842,226.498881,956.308590,275.450861,846.814301,0.000000,0.000000,0.000000,0.000000,0,6,0,0,0,0
1.365900,350.966000,1235.474543,1224.383840,1336.403220,1345.665749,1369.281646,0.000000,0.000000,0.000000,0.000000,0,6,0,0,0,0
1.365900,350.966000,1235.474543,1224.383840,1336.403220,1345.665749,1369.281646,0.000000,0.000000,0.000000,0.000000,0,6,0,0,0,0
1.372567,-9498.055000,-9260.886777,-9886.274067,-10271.641222,-10356.609532,-9486.663774,0.000000,0.000000,0.000000,0.000000,0,6,0,0,0,0
1.375900,8648.633000,8442.347618,8345.383767,8545.708223,8602.751462,8680.708294,0.000000,0.000000,0.000000,0.000000,0,6,0,0,0,0
1.379234,-1368.346000,-1590.522553,-1479.737550,-1166.097314,-1054.072458,-1133.926561,0.000000,0.000000,0.000000,0.000000,0,6,0,0,0,0
1.382567,8848.497000,10013.949443,9999.042604,9974.668098,10203.051949,10100.932317,0.000000,0.000000,0.000000,0.000000,0,6,0,0,0,0
1.385900,-6472.704000,-6813.914414,-7589.021473,-8300.143912,-8097.150350,-7140.889333,0.000000,0.000000,0.000000,0.000000,0,6,0,0,0,0
1.389234,-3590.027000,-4003.797098,-4810.530100,-5515.290460,-5329.027255,-4258.212333,0.000000,0.000000,0.000000,0.000000,0,6,0,0,0,0
1.392567,7990.948000,9279.931806,9300.624390,9299.563017,9679.568527,9434.935774,0.000000,0.000000,0.000000,0.000000,0,6,0,0,0,0
1.395900,1234.100000,1713.833447,1777.246398,1916.764335,2187.116522,2086.343563,0.000000,0.000000,0.000000,0.000000,0,6,0,0,0,0
1.399234,7841.351000,7628.469283,7538.702261,7441.954855,7767.280805,7754.717729,0.000000,0.000000,0.000000,0.000000,0,6,0,0,0,0
1.402567,-2702.679000,3809.102880,3399.236008,2561.788293,3146.767279,3749.850964,0.000000,0.000000,0.000000,0.000000,0,6,0,0,0,0
1.405900,8692.579000,11689.413878,11112.267680,10858.800465,10932.077863,11846.449743,0.000000,0.000000,0.000000,0.000000,0,6,0,0,0,0
1.409234,-1709.379000,-76.786112,-76.036598,-194.014213,167.865628,356.329896,0.000000,0.000000,0.000000,0.000000,0,6,0,0,0,0
1.412567,8887.025000,10244.070989,11984.070382,14487.573196,14085.433246,14275.374644,0.000000,0.000000,0.000000,0.000000,0,6,0,0,0,0
1.415900,8372.014000,13264.395662,14128.344981,15725.584194,15257.243497,15790.400017,0.000000,0.000000,0.000000,0.000000,0,6,0,0,0,0
1.419234,-2061.850000,7142.136019,6636.599033,6260.353368,6249.305728,7326.318799,0.000000,0.000000,0.000000,0.000000,0,6,0,0,0,0
1.422567,7319.116000,8101.381352,7100.836602,6873.208659,6531.932750,8729.529634,0.000000,0.000000,0.000000,0.000000,0,6,0,0,0,0
1.425900,-9862.867000,-16435.814894,-16546.359992,-15971.737562,-16378.645158,-14579.434082,0.000000,0.000000,0.000000,0.000000,0,6,0,0,0,0
1.429234,4726.904000,4247.170553,4371.411830,4630.880885,4738.899173,5145.081900,0.000000,0.000000,0.000000,0.000000,0,6,0,0,0,0
1.432567,-7663.460000,-10762.837903,-10803.740917,-10583.462920,-10558.195206,-9864.664531,0.000000,0.000000,0.000000,0.000000,0,6,0,0,0,0
1.435900,-5020.078000,-13220.521614,-13618.244613,-14067.255888,-13957.381776,-13325.780565,0.000000,0.000000,0.000000,0.000000,0,6,0,0,0,0
1.439234,-354.879000,1657.902645,922.971232,62.221407,577.145969,1737.509346,0.000000,0.000000,0.000000,0.000000,0,6,0,0,0,0
1.442567,-4810.281000,-6616.477429,-6568.526057,-6491.285661,-6103.660565,-5765.645134,0.000000,0.000000,0.000000,0.000000,0,6,0,0,0,0
1.445900,9863.168000,11424.400537,11559.261976,11383.634015,11903.546985,11807.470409,0.000000,0.000000,0.000000,0.000000,0,6,0,0,0,0
1.449234,-4848.508000,-3688.452558,-3522.618285,-4082.123512,-3443.873202,-3455.780743,0.000000,0.000000,0.000000,0.000000,0,6,0,0,0,0
1.452567,1732.556000,955.687649,322.296944,-485.878034,-59.522897,708.844510,0.000000,0.000000,0.000000,0.000000,0,6,0,0,0,0
1.455900,-3562.335000,2482.606269,2224.320904,1021.568464,1821.398674,2281.963452,0.000000,0.000000,0.000000,0.000000,0,6,0,0,0,0
1.459234,9863.168000,8417.970990,9279.788535,8898.735836,9570.185891,9013.022821,0.000000,0.000000,0.000000,0.000000,0,6,0,0,0,0
1.462567,7392.259000,11891.259235,13324.534586,13320.786149,14034.286358,13109.155582,0.000000,0.000000,0.000000,0.000000,0,6,0,0,0,0
1.465900,8459.906000,15426.535155,15722.875249,15154.217493,15317.846478,15292.543188,0.000000,0.000000,0.000000,0.000000,0,6,0,0,0,0
1.469234,-192.640000,-1464.833135,-2231.015289,-3585.856835,-3342.572519,-2238.863904,0.000000,0.000000,0.000000,0.000000,0,6,0,0,0,0
1.472567,-9862.867000,-19687.808000,-19701.353000,-19695.634000,-19689.313000,-19685.701000,0.000000,0.000000,0.000000,0.000000,0,6,0,0,0,0
1.475900,6595.512000,6436.300462,6037.053017,5341.510129,5643.395116,6168.341027,0.000000,0.000000,0.000000,0.000000,0,6,0,0,0,0
1.479234,-3987.648000,-4309.968910,-4210.731346,-4262.514167,-4001.442449,-4008.931606,0.000000,0.000000,0.000000,0.000000,0,6,0,0,0,0
1.482567,7616.504000,9625.987477,9560.902051,9143.271532,9523.136802,9518.838734,0.000000,0.000000,0.000000,0.000000,0,6,0,0,0,0
1.485900,-7031.962000,-7364.777079,-8167.495266,-9385.128468,-9092.432900,-8072.160791,0.000000,0.000000,0.000000,0.000000,0,6,0,0,0,0
1.489234,-3949.421000,-3866.966814,-4703.640874,-6022.320000,-5826.365748,-4555.254359,0.000000,0.000000,0.000000,0.000000,0,6,0,0,0,0
1.492567,6648.488000,8082.591174,8136.210721,7902.489871,8364.097667,8168.317357,0.000000,0.000000,0.000000,0.000000,0,6,0,0,0,0
1.495900,-633.906000,-53.428529,-0.385326,-82.973376,127.487628,73.249316,0.000000,0.000000,0.000000,0.000000,0,6,0,0,0,0
1.499234,6989.822000,7144.236203,7065.784432,6842.186460,6983.224655,6943.957327,0.000000,0.000000,0.000000,0.000000,0,6,0,0,0,0
1.502567,-3796.814000,1234.390528,655.245033,-598.944190,-50.121607,320.514643,0.000000,0.000000,0.000000,0.000000,0,6,0,0,0,0
1.502567,-3796.814000,1234.390528,655.245033,-598.944190,-50.121607,320.514643,0.000000,0.000000,0.000000,0.000000,0,6,0,0,0,0
1.509234,6113.912000,14410.602137,14760.418342,14620.059649,14688.361783,14354.564669,0.000000,0.000000,0.000000,0.000000,0,6,0,0,0,0
1.512567,7270.053000,11587.354192,12979.545486,13803.225703,12446.270175,11575.936410,0.000000,0.000000,0.000000,0.000000,0,6,0,0,0,0
1.515900,8479.772000,16375.884709,16935.321400,17241.581193,16007.942788,15530.641095,0.000000,0.000000,0.000000,0.000000,0,6,0,0,0,0
1.519234,-5796.056000,2932.694073,2217.830408,1153.616965,492.413623,1577.064882,0.000000,0.000000,0.000000,0.000000,0,6,0,0,0,0
1.519234,-5796.056000,2932.694073,2217.830408,1153.616965,492.413623,1577.064882,0.000000,0.000000,0.000000,0.000000,0,6,0,0,0,0
1.525900,-995.407000,5689.678588,6093.118878,6431.980963,5737.183916,5634.286504,0.000000,0.000000,0.000000,0.000000,0,6,0,0,0,0
1.525900,-995.407000,5689.678588,6093.118878,6431.980963,5737.183916,5634.286504,0.000000,0.000000,0.000000,0.000000,0,6,0,0,0,0
1.532567,1082.396000,5067.481780,5695.387300,6288.949351,4523.811231,4234.468129,0.000000,0.000000,0.000000,0.000000,0,6,0,0,0,0
1.535900,4178.783000,12769.010040,12393.234247,11011.727866,10022.231693,11213.464564,0.000000,0.000000,0.000000,0.000000,0,6,0,0,0,0
1.539234,895.776000,8260.883749,7673.846723,6480.720440,4221.737688,6318.898861,0.000000,0.000000,0.000000,0.000000,0,6,0,0,0,0
1.542567,1363.530000,6476.289214,7276.289546,7987.324518,5786.750169,5553.402767,0.000000,0.000000,0.000000,0.000000,0,6,0,0,0,0
1.542567,1363.530000,6476.289214,7276.289546,7987.324518,5786.750169,5553.402767,0.000000,0.000000,0.000000,0.000000,0,6,0,0,0,0
1.549234,-5916.456000,44.831749,845.101151,985.205407,-359.991830,-842.264377,0.000000,0.000000,0.000000,0.000000,0,6,0,0,0,0
1.552567,8280.209000,14725.427864,13805.049725,11886.777194,10527.804605,12254.547781,0.000000,0.000000,0.000000,0.000000,0,6,0,0,0,0
1.555900,-9862.867000,-2387.720391,-3003.129157,-4881.067753,-5447.743573,-4058.437839,0.000000,0.000000,0.000000,0.000000,0,6,0,0,0,0
1.559234,-5006.533000,-9629.964098,-10126.641086,-10072.352473,-10960.037408,-10117.895992,0.000000,0.000000,0.000000,0.000000,0,6,0,0,0,0
1.559234,-5006.533000,-9629.964098,-10126.641086,-10072.352473,-10960.037408,-10117.895992,0.000000,0.000000,0.000000,0.000000,0,6,0,0,0,0
1.565900,-9567.887000,-18473.538782,-18757.239494,-19048.669268,-19096.852701,-18897.001286,0.000000,0.000000,0.000000,0.000000,0,6,0,0,0,0
1.565900,-9567.887000,-18473.538782,-18757.239494,-19048.669268,-19096.852701,-18897.001286,0.000000,0.000000,0.000000,0.000000,0,6,0,0,0,0
1.572567,-9862.867000,-19687.808000,-19701.353000,-19695.634000,-19689.313000,-19685.701000,0.000000,0.000000,0.000000,0.000000,0,6,0,0,0,0
1.575900,-4043.935000,-9009.176179,-9277.236116,-10080.188081,-9228.548797,-9978.763721,0.000000,0.000000,0.000000,0.000000,0,6,0,0,0,0
1.579234,-9862.867000,-19319.312746,-19131.184393,-19021.071615,-18828.359434,-19176.393292,0.000000,0.000000,0.000000,0.000000,0,6,0,0,0,0
1.582567,-5039.041000,-10279.529245,-10361.215159,-11522.401712,-10262.339231,-11179.811096,0.000000,0.000000,0.000000,0.000000,0,6,0,0,0,0
1.582567,-5039.041000,-10279.529245,-10361.215159,-11522.401712,-10262.339231,-11179.811096,0.000000,0.000000,0.000000,0.000000,0,6,0,0,0,0
1.585900,-8596.560000,-16309.774332,-16411.382803,-16870.751811,-16343.342822,-16696.021421,0.000000,0.000000,0.000000,0.000000,0,6,0,0,0,0
1.592567,-6466.383000,-10730.313846,-10843.680589,-12591.457463,-10294.342692,-11727.330775,0.000000,0.000000,0.000000,0.000000,0,6,0,0,0,0
1.595900,-9721.397000,-19546.338000,-19559.883000,-19554.164000,-19354.120951,-19544.231000,0.000000,0.000000,0.000000,0.000000,0,6,0,0,0,0
1.599234,-3342.906000,-7773.844052,-7487.212099,-9447.875623,-6491.639002,-9209.387365,0.000000,0.000000,0.000000,0.000000,0,6,0,0,0,0
1.599234,-3342.906000,-7773.844052,-7487.212099,-9447.875623,-6491.639002,-9209.387365,0.000000,0.000000,0.000000,0.000000,0,6,0,0,0,0
1.605900,-9036.923000,-17660.431548,-17705.347356,-18454.089954,-17416.751095,-18163.393371,0.000000,0.000000,0.000000,0.000000,0,6,0,0,0,0
1.609234,-9862.867000,-19234.759726,-19469.862744,-19695.634000,-19512.384193,-19544.509752,0.000000,0.000000,0.000000,0.000000,0,6,0,0,0,0
1.612567,-6594.308000,-15349.143579,-14946.272266,-15634.884299,-14141.371186,-15730.071214,0.000000,0.000000,0.000000,0.000000,0,6,0,0,0,0
1.615900,-6040.468000,-12350.461999,-11917.197934,-13850.448063,-10769.265210,-13536.793984,0.000000,0.000000,0.000000,0.000000,0,6,0,0,0,0
1.615900,-6040.468000,-12350.461999,-11917.197934,-13850.448063,-10769.265210,-13536.793984,0.000000,0.000000,0.000000,0.000000,0,6,0,0,0,0
1.622567,-9061.605000,-18342.048537,-18270.473534,-18617.105255,-18090.371973,-18555.292524,0.000000,0.000000,0.000000,0.000000,0,6,0,0,0,0
1.622567,-9061.605000,-18342.048537,-18270.473534,-18617.105255,-18090.371973,-18555.292524,0.000000,0.000000,0.000000,0.000000,0,6,0,0,0,0
1.629234,-5282.249000,-11875.585566,-11418.091892,-14086.668450,-10119.902408,-13607.736326,0.000000,0.000000,0.000000,0.000000,0,6,0,0,0,0
1.632567,-8729.000000,-17733.596805,-17622.008937,-18227.486530,-16974.182274,-18111.772955,0.000000,0.000000,0.000000,0.000000,0,6,0,0,0,0
1.635900,-9862.867000,-19687.808000,-19701.353000,-19695.634000,-19689.313000,-19685.701000,0.000000,0.000000,0.000000,0.000000,0,6,0,0,0,0
1.639234,-9808.988000,-19429.742452,-19426.492381,-19479.415921,-19324.759010,-19454.658460,0.000000,0.000000,0.000000,0.000000,0,6,0,0,0,0
1.639234,-9808.988000,-19429.742452,-19426.492381,-19479.415921,-19324.759010,-19454.658460,0.000000,0.000000,0.000000,0.000000,0,6,0,0,0,0
1.645900,-6587.385000,-11884.241925,-11508.129234,-14629.320901,-10027.000955,-14015.963166,0.000000,0.000000,0.000000,0.000000,0,6,0,0,0,0
1.649234,-9862.867000,-19572.372139,-19465.959536,-19596.910235,-19127.339129,-19593.971654,0.000000,0.000000,0.000000,0.000000,0,6,0,0,0,0
1.652567,-9553.439000,-19166.397783,-19196.764603,-19332.493070,-19195.459210,-19294.735804,0.000000,0.000000,0.000000,0.000000,0,6,0,0,0,0
1.655900,-9862.867000,-19687.808000,-19701.353000,-19695.634000,-19689.313000,-19685.701000,0.000000,0.000000,0.000000,0.000000,0,6,0,0,0,0
1.655900,-9862.867000,-19687.808000,-19701.353000,-19695.634000,-19689.313000,-19685.701000,0.000000,0.000000,0.000000,0.000000,0,6,0,0,0,0
1.662567,-9612.134000,-17190.723133,-17054.951061,-19033.802038,-16469.474719,-18608.204811,0.000000,0.000000,0.000000,0.000000,0,6,0,0,0,0
1.662567,-9612.134000,-17190.723133,-17054.951061,-19033.802038,-16469.474719,-18608.204811,0.000000,0.000000,0.000000,0.000000,0,6,0,0,0,0
1.669234,-9829.155000,-19408.232608,-19408.828288,-19622.612537,-19342.826855,-19563.557114,0.000000,0.000000,0.000000,0.000000,0,6,0,0,0,0
1.672567,-9862.867000,-19687.808000,-19701.353000,-19695.634000,-19689.313000,-19685.701000,0.000000,0.000000,0.000000,0.000000,0,6,0,0,0,0
1.672567,-9862.867000,-19687.808000,-19701.353000,-19695.634000,-19689.313000,-19685.701000,0.000000,0.000000,0.000000,0.000000,0,6,0,0,0,0
1.679234,-9862.867000,-19687.808000,-19701.353000,-19695.634000,-19681.216258,-19685.701000,0.000000,0.000000,0.000000,0.000000,0,6,0,0,0,0
1.679234,-9862.867000,-19687.808000,-19701.353000,-19695.634000,-19681.216258,-19685.701000,0.000000,0.000000,0.000000,0.000000,0,6,0,0,0,0
1.685900,-9858.653000,-19625.126486,-19631.384958,-19689.919639,-19581.340751,-19675.791387,0.000000,0.000000,0.000000,0.000000,0,6,0,0,0,0
1.689234,-9862.867000,-19687.808000,-19701.353000,-19695.634000,-19689.313000,-19685.701000,0.000000,0.000000,0.000000,0.000000,0,6,0,0,0,0
1.692567,-9860.459000,-19582.557142,-19580.948021,-19690.225278,-19485.685967,-19677.297618,0.000000,0.000000,0.000000,0.000000,0,6,0,0,0,0
1.695900,-9862.867000,-19687.808000,-19701.353000,-19695.634000,-19689.313000,-19685.701000,0.000000,0.000000,0.000000,0.000000,0,6,0,0,0,0
1.695900,-9862.867000,-19687.808000,-19701.353000,-19695.634000,-19689.313000,-19685.701000,0.000000,0.000000,0.000000,0.000000,0,6,0,0,0,0
1.702567,-9862.566000,-19657.823493,-19666.823869,-19695.333000,-19621.239271,-19685.400000,0.000000,0.000000,0.000000,0.000000,0,6,0,0,0,0
1.705900,-9862.867000,-19654.226659,-19662.020674,-19695.634000,-19620.940512,-19685.701000,0.000000,0.000000,0.000000,0.000000,0,6,0,0,0,0
1.709234,-9862.566000,-19687.507000,-19701.052000,-19695.333000,-19689.012000,-19685.400000,0.000000,0.000000,0.000000,0.000000,0,6,0,0,0,0
1.712567,-9862.867000,-19649.129491,-19656.315985,-19695.634000,-19608.945339,-19685.701000,0.000000,0.000000,0.000000,0.000000,0,6,0,0,0,0
1.712567,-9862.867000,-19649.129491,-19656.315985,-19695.634000,-19608.945339,-19685.701000,0.000000,0.000000,0.000000,0.000000,0,6,0,0,0,0
1.719234,-9862.867000,-19670.117829,-19680.635973,-19695.634000,-19652.127963,-19685.701000,0.000000,0.000000,0.000000,0.000000,0,6,0,0,0,0
1.719234,-9862.867000,-19670.117829,-19680.635973,-19695.634000,-19652.127963,-19685.701000,0.000000,0.000000,0.000000,0.000000,0,6,0,0,0,0
1.725900,-9862.867000,-19685.709166,-19698.951026,-19695.634000,-19684.514931,-19685.701000,0.000000,0.000000,0.000000,0.000000,0,6,0,0,0,0
1.729234,-9862.867000,-19686.908500,-19700.152013,-19695.634000,-19687.213845,-19685.701000,0.000000,0.000000,0.000000,0.000000,0,6,0,0,0,0
1.732567,-9862.867000,-19687.808000,-19701.353000,-19695.634000,-19689.313000,-19685.701000,0.000000,0.000000,0.000000,0.000000,0,6,0,0,0,0
1.735900,-9862.867000,-19686.009000,-19699.251273,-19695.634000,-19685.114689,-19685.701000,0.000000,0.000000,0.000000,0.000000,0,6,0,0,0,0
1.735900,-9862.867000,-19686.009000,-19699.251273,-19695.634000,-19685.114689,-19685.701000,0.000000,0.000000,0.000000,0.000000,0,6,0,0,0,0
1.742567,-9862.867000,-19687.208333,-19700.752506,-19695.634000,-19688.113483,-19685.701000,0.000000,0.000000,0.000000,0.000000,0,6,0,0,0,0
1.745900,-9862.867000,-19687.808000,-19701.353000,-19695.634000,-19689.313000,-19685.701000,0.000000,0.000000,0.000000,0.000000,0,6,0,0,0,0
1.749234,-9862.867000,-19687.808000,-19701.353000,-19695.634000,-19689.313000,-19685.701000,0.000000,0.000000,0.000000,0.000000,0,6,0,0,0,0
1.752567,-9862.867000,-19687.808000,-19701.353000,-19695.634000,-19689.313000,-19685.701000,0.000000,0.000000,0.000000,0.000000,0,6,0,0,0,0
1.752567,-9862.867000,-19687.808000,-19701.353000,-19695.634000,-19689.313000,-19685.701000,0.000000,0.000000,0.000000,0.000000,0,6,0,0,0,0
1.759234,-9862.867000,-19687.808000,-19701.353000,-19695.634000,-19689.313000,-19685.701000,0.000000,0.000000,0.000000,0.000000,0,6,0,0,0,0
1.762567,-9862.867000,-19687.808000,-19701.353000,-19695.634000,-19689.313000,-19685.701000,0.000000,0.000000,0.000000,0.000000,0,6,0,0,0,0
1.765900,-9862.867000,-19687.808000,-19701.353000,-19695.634000,-19689.313000,-19685.701000,0.000000,0.000000,0.000000,0.000000,0,6,0,0,0,0
1.769234,-9862.867000,-19687.808000,-19701.353000,-19695.634000,-19689.313000,-19685.701000,0.000000,0.000000,0.000000,0.000000,0,6,0,0,0,0
1.769234,-9862.867000,-19687.808000,-19701.353000,-19695.634000,-19689.313000,-19685.701000,0.000000,0.000000,0.000000,0.000000,0,6,0,0,0,0
1.775900,-9862.867000,-19687.808000,-19701.353000,-19695.634000,-19689.313000,-19685.701000,0.000000,0.000000,0.000000,0.000000,0,6,0,0,0,0
1.775900,-9862.867000,-19687.808000,-19701.353000,-19695.634000,-19689.313000,-19685.701000,0.000000,0.000000,0.000000,0.000000,0,6,0,0,0,0
1.782567,-9862.867000,-19687.808000,-19701.353000,-19695.634000,-19689.313000,-19685.701000,0.000000,0.000000,0.000000,0.000000,0,6,0,0,0,0
1.785900,-9862.867000,-19687.808000,-19701.353000,-19695.634000,-19689.313000,-19685.701000,0.000000,0.000000,0.000000,0.000000,0,6,0,0,0,0
1.789234,-9862.867000,-19687.808000,-19701.353000,-19695.634000,-19689.313000,-19685.701000,0.000000,0.000000,0.000000,0.000000,0,6,0,0,0,0
1.792567,-9862.867000,-19687.808000,-19701.353000,-19695.634000,-19689.313000,-19685.701000,0.000000,0.000000,0.000000,0.000000,0,6,0,0,0,0
1.792567,-9862.867000,-19687.808000,-19701.353000,-19695.634000,-19689.313000,-19685.701000,0.000000,0.000000,0.000000,0.000000,0,6,0,0,0,0
1.799234,-9862.867000,-19687.808000,-19701.353000,-19695.634000,-19689.313000,-19685.701000,0.000000,0.000000,0.000000,0.000000,0,6,0,0,0,0
1.802567,-9862.867000,-19687.808000,-19701.353000,-19695.634000,-19689.313000,-19685.701000,0.000000,0.000000,0.000000,0.000000,0,6,0,0,0,0
1.805900,-9862.867000,-19687.808000,-19701.353000,-19695.634000,-19689.313000,-19685.701000,0.000000,0.000000,0.000000,0.000000,0,6,0,0,0,0
1.809234,-9862.867000,-19687.808000,-19701.353000,-19695.634000,-19689.313000,-19685.701000,0.000000,0.000000,0.000000,0.000000,0,6,0,0,0,0
1.809234,-9862.867000,-19687.808000,-19701.353000,-19695.634000,-19689.313000,-19685.701000,0.000000,0.000000,0.000000,0.000000,0,6,0,0,0,0
1.815900,-9862.867000,-19687.808000,-19701.353000,-19695.634000,-19689.313000,-19685.701000,0.000000,0.000000,0.000000,0.000000,0,6,0,0,0,0
1.815900,-9862.867000,-19687.808000,-19701.353000,-19695.634000,-19689.313000,-19685.701000,0.000000,0.000000,0.000000,0.000000,0,6,0,0,0,0
1.822567,-9862.867000,-19687.808000,-19701.353000,-19695.634000,-19689.313000,-19685.701000,0.000000,0.000000,0.000000,0.000000,0,6,0,0,0,0
1.825900,-9862.867000,-19687.808000,-19701.353000,-19695.634000,-19689.313000,-19685.701000,0.000000,0.000000,0.000000,0.000000,0,6,0,0,0,0
1.829234,-9862.867000,-19687.808000,-19701.353000,-19695.634000,-19689.313000,-19685.701000,0.000000,0.000000,0.000000,0.000000,0,6,0,0,0,0
1.832567,-9862.867000,-19687.808000,-19701.353000,-19695.634000,-19689.313000,-19685.701000,0.000000,0.000000,0.000000,0.000000,0,6,0,0,0,0
1.832567,-9862.867000,-19687.808000,-19701.353000,-19695.634000,-19689.313000,-19685.701000,0.000000,0.000000,0.000000,0.000000,0,6,0,0,0,0
1.835900,-9862.867000,-19687.808000,-19701.353000,-19695.634000,-19689.313000,-19685.701000,0.000000,0.000000,0.000000,0.000000,0,6,0,0,0,0
1.842567,-9862.867000,-19687.808000,-19701.353000,-19695.634000,-19689.313000,-19685.701000,0.000000,0.000000,0.000000,0.000000,0,6,0,0,0,0
1.845900,-9862.867000,-19687.808000,-19701.353000,-19695.634000,-19689.313000,-19685.701000,0.000000,0.000000,0.000000,0.000000,0,6,0,0,0,0
1.849234,-9862.867000,-19687.808000,-19701.353000,-19695.634000,-19689.313000,-19685.701000,0.000000,0.000000,0.000000,0.000000,0,6,0,0,0,0
1.849234,-9862.867000,-19687.808000,-19701.353000,-19695.634000,-19689.313000,-19685.701000,0.000000,0.000000,0.000000,0.000000,0,6,0,0,0,0
1.855900,-9862.867000,-19687.808000,-19701.353000,-19695.634000,-19689.313000,-19685.701000,0.000000,0.000000,0.000000,0.000000,0,6,0,0,0,0
1.859234,-9862.867000,-19687.808000,-19701.353000,-19695.634000,-19689.313000,-19685.701000,0.000000,0.000000,0.000000,0.000000,0,6,0,0,0,0
1.862567,-9862.867000,-19687.808000,-19701.353000,-19695.634000,-19689.313000,-19685.701000,0.000000,0.000000,0.000000,0.000000,0,6,0,0,0,0
1.865900,-9862.867000,-19687.808000,-19701.353000,-19695.634000,-19689.313000,-19685.701000,0.000000,0.000000,0.000000,0.000000,0,6,0,0,0,0
1.865900,-9862.867000,-19687.808000,-19701.353000,-19695.634000,-19689.313000,-19685.701000,0.000000,0.000000,0.000000,0.000000,0,6,0,0,0,0
1.872567,-9862.867000,-19687.808000,-19701.353000,-19695.634000,-19689.313000,-19685.701000,0.000000,0.000000,0.000000,0.000000,0,6,0,0,0,0
1.872567,-9862.867000,-19687.808000,-19701.353000,-19695.634000,-19689.313000,-19685.701000,0.000000,0.000000,0.000000,0.000000,0,6,0,0,0,0
1.879234,-9862.867000,-19687.808000,-19701.353000,-19695.634000,-19689.313000,-19685.701000,0.000000,0.000000,0.000000,0.000000,0,6,0,0,0,0
1.882567,-9862.867000,-19687.808000,-19701.353000,-19695.634000,-19689.313000,-19681.504233,0.000000,0.000000,0.000000,0.000000,0,6,0,0,0,0
1.885900,-9853.235000,-19671.579665,-19686.016311,-19686.002000,-19673.083655,-19676.069000,0.000000,0.000000,0.000000,0.000000,0,6,0,0,0,0
1.889234,-9862.867000,-19687.808000,-19701.353000,-19695.634000,-19689.313000,-19685.701000,0.000000,0.000000,0.000000,0.000000,0,6,0,0,0,0
1.889234,-9862.867000,-19687.808000,-19701.353000,-19695.634000,-19689.313000,-19685.701000,0.000000,0.000000,0.000000,0.000000,0,6,0,0,0,0
1.892567,-9834.272000,-19626.830992,-19641.832583,-19667.039000,-19628.630911,-19647.513389,0.000000,0.000000,0.000000,0.000000,0,6,0,0,0,0
1.899234,-9829.456000,-19598.028320,-19609.994374,-19662.223000,-19597.425530,-19604.027174,0.000000,0.000000,0.000000,0.000000,0,6,0,0,0,0
1.902567,-9862.867000,-19687.808000,-19701.353000,-19693.833567,-19689.313000,-19685.701000,0.000000,0.000000,0.000000,0.000000,0,6,0,0,0,0
1.905900,-9862.867000,-19679.712498,-19681.836960,-19695.634000,-19673.419395,-19596.969345,0.000000,0.000000,0.000000,0.000000,0,6,0,0,0,0
1.909234,-9716.280000,-19445.274311,-19477.602581,-19543.945772,-19456.660631,-19539.114000,0.000000,0.000000,0.000000,0.000000,0,6,0,0,0,0
1.909234,-9716.280000,-19445.274311,-19477.602581,-19543.945772,-19456.660631,-19539.114000,0.000000,0.000000,0.000000,0.000000,0,6,0,0,0,0
1.912567,-9862.867000,-19687.808000,-19701.353000,-19695.634000,-19689.313000,-19685.701000,0.000000,0.000000,0.000000,0.000000,0,6,0,0,0,0
1.919234,-691.096000,-1832.261938,-2590.156789,-10523.863000,-3029.255163,-6629.821719,0.000000,0.000000,0.000000,0.000000,0,6,0,0,0,0
1.922567,-2063.355000,-5656.858353,-6897.928412,-11896.122000,-7885.812139,-11617.895652,0.000000,0.000000,0.000000,0.000000,0,6,0,0,0,0
1.925900,-1293.096000,-4066.854825,-4360.717199,-11060.447253,-4307.183181,-7885.018597,0.000000,0.000000,0.000000,0.000000,0,6,0,0,0,0
1.929234,-1434.566000,-4989.690678,-4915.626995,-11110.995366,-4654.670283,-9100.261528,0.000000,0.000000,0.000000,0.000000,0,6,0,0,0,0
1.929234,-1434.566000,-4989.690678,-4915.626995,-11110.995366,-4654.670283,-9100.261528,0.000000,0.000000,0.000000,0.000000,0,6,0,0,0,0
1.935900,-1512.826000,-4659.877414,-5405.825557,-11345.593000,-6414.953465,-9748.382594,0.000000,0.000000,0.000000,0.000000,0,6,0,0,0,0
1.939234,-1633.527000,-4793.771084,-5668.843523,-11426.984537,-6990.871293,-9997.085002,0.000000,0.000000,0.000000,0.000000,0,6,0,0,0,0
1.942567,-1749.412000,-6083.803696,-6410.142535,-11582.179000,-6642.543085,-10666.043999,0.000000,0.000000,0.000000,0.000000,0,6,0,0,0,0
1.945900,-1480.017000,-5029.444843,-4935.557020,-10936.493417,-4761.296667,-8563.560928,0.000000,0.000000,0.000000,0.000000,0,6,0,0,0,0
1.949234,-1531.488000,-5405.935253,-5393.862387,-11189.913031,-5599.950918,-9562.002527,0.000000,0.000000,0.000000,0.000000,0,6,0,0,0,0
1.949234,-1531.488000,-5405.935253,-5393.862387,-11189.913031,-5599.950918,-9562.002527,0.000000,0.000000,0.000000,0.000000,0,6,0,0,0,0
1.955900,-1323.798000,-3888.273109,-4592.584532,-11100.151420,-5573.088156,-7878.848997,0.000000,0.000000,0.000000,0.000000,0,6,0,0,0,0
1.959234,-2038.673000,-6724.469446,-6966.923403,-11871.440000,-7594.237532,-11517.971607,0.000000,0.000000,0.000000,0.000000,0,6,0,0,0,0
1.962567,-1598.912000,-5221.499194,-5076.670281,-10729.509970,-4932.370671,-8272.671562,0.000000,0.000000,0.000000,0.000000,0,6,0,0,0,0
1.965900,-1514.632000,-5062.260843,-5085.166531,-10845.078078,-5450.848131,-9060.719655,0.000000,0.000000,0.000000,0.000000,0,6,0,0,0,0
1.965900,-1514.632000,-5062.260843,-5085.166531,-10845.078078,-5450.848131,-9060.719655,0.000000,0.000000,0.000000,0.000000,0,6,0,0,0,0
1.969234,-2172.016000,-5701.654838,-6570.330862,-12004.783000,-8031.658177,-11017.302952,0.000000,0.000000,0.000000,0.000000,0,6,0,0,0,0
1.975900,-1966.433000,-6476.527071,-6794.100737,-11799.200000,-7298.587429,-11055.132464,0.000000,0.000000,0.000000,0.000000,0,6,0,0,0,0
1.979234,-1786.134000,-6516.305790,-6169.736771,-11435.556864,-5916.372060,-9600.515003,0.000000,0.000000,0.000000,0.000000,0,6,0,0,0,0
1.982567,-1652.791000,-6140.697399,-6127.368541,-11396.436546,-6285.027065,-10066.110673,0.000000,0.000000,0.000000,0.000000,0,6,0,0,0,0
1.985900,-1982.085000,-5500.929836,-6477.679814,-11814.852000,-7836.629228,-10589.355283,0.000000,0.000000,0.000000,0.000000,0,6,0,0,0,0
1.985900,-1982.085000,-5500.929836,-6477.679814,-11814.852000,-7836.629228,-10589.355283,0.000000,0.000000,0.000000,0.000000,0,6,0,0,0,0
1.989234,-1969.443000,-5255.916947,-6245.257182,-11796.808700,-7698.037908,-10207.397747,0.000000,0.000000,0.000000,0.000000,0,6,0,0,0,0
1.995900,-1987.804000,-7612.978503,-7046.961993,-11820.571000,-6751.687092,-10965.588896,0.000000,0.000000,0.000000,0.000000,0,6,0,0,0,0
1.999234,-1913.758000,-6463.729914,-6325.583967,-11703.314598,-6227.522212,-9970.951977,0.000000,0.000000,0.000000,0.000000,0,6,0,0,0,0
2.002567,-1677.473000,-5197.817003,-6156.854489,-11446.624686,-7408.167063,-9781.730727,0.000000,0.000000,0.000000,0.000000,0,6,0,0,0,0
2.005900,-2434.488000,-5990.212344,-7337.517675,-12267.255000,-8846.807788,-11589.436436,0.000000,0.000000,0.000000,0.000000,0,6,0,0,0,0
2.005900,-2434.488000,-5990.212344,-7337.517675,-12267.255000,-8846.807788,-11589.436436,0.000000,0.000000,0.000000,0.000000,0,6,0,0,0,0
2.012567,-2062.151000,-7433.366609,-7045.346561,-11892.817494,-6886.609717,-11235.685121,0.000000,0.000000,0.000000,0.000000,0,6,0,0,0,0
2.015900,-2119.341000,-6764.060270,-6597.221255,-11761.562131,-6597.439087,-10206.811657,0.000000,0.000000,0.000000,0.000000,0,6,0,0,0,0
2.019234,-1620.584000,-5148.124004,-6065.136864,-11399.938142,-7471.229797,-9655.295295,0.000000,0.000000,0.000000,0.000000,0,6,0,0,0,0
2.022567,-2634.051000,-6298.015203,-7736.744773,-12466.818000,-9709.703874,-11871.735709,0.000000,0.000000,0.000000,0.000000,0,6,0,0,0,0
2.025900,-1452.325000,-5236.222565,-5445.907223,-11122.452849,-5727.404778,-8885.999241,0.000000,0.000000,0.000000,0.000000,0,6,0,0,0,0
2.029234,-6037.458000,-13818.434681,-13657.720899,-15822.213442,-13547.636028,-15339.892835,0.000000,0.000000,0.000000,0.000000,0,6,0,0,0,0
2.032567,-5545.022000,-12596.204175,-12587.009630,-15377.789000,-12817.995475,-14954.174636,0.000000,0.000000,0.000000,0.000000,0,6,0,0,0,0
2.035900,-1535.702000,-4565.218719,-5535.289158,-11368.469000,-6999.503456,-9787.146357,0.000000,0.000000,0.000000,0.000000,0,6,0,0,0,0
2.039234,-2286.998000,-5879.601853,-7150.695348,-12114.663772,-8764.091724,-10846.005458,0.000000,0.000000,0.000000,0.000000,0,6,0,0,0,0
2.042567,-3554.810000,-8236.708612,-8582.442082,-13387.577000,-9244.720474,-12460.950080,0.000000,0.000000,0.000000,0.000000,0,6,0,0,0,0
2.045900,-9690.695000,-19294.059114,-19265.264093,-19518.060700,-19270.640188,-19513.529000,0.000000,0.000000,0.000000,0.000000,0,6,0,0,0,0
2.045900,-9690.695000,-19294.059114,-19265.264093,-19518.060700,-19270.640188,-19513.529000,0.000000,0.000000,0.000000,0.000000,0,6,0,0,0,0
2.052567,-2224.691000,-5480.581940,-6570.762925,-12057.458000,-8260.362345,-10887.118798,0.000000,0.000000,0.000000,0.000000,0,6,0,0,0,0
2.055900,-1819.545000,-5125.508118,-6090.555234,-11644.210050,-7825.828171,-9550.290423,0.000000,0.000000,0.000000,0.000000,0,6,0,0,0,0
2.059234,-4032.497000,-9272.685411,-9802.339086,-13865.264000,-10710.209998,-13792.379488,0.000000,0.000000,0.000000,0.000000,0,6,0,0,0,0
2.062567,-7500.619000,-14232.478599,-13925.299280,-17257.167652,-14013.098486,-16824.337442,0.000000,0.000000,0.000000,0.000000,0,6,0,0,0,0
2.062567,-7500.619000,-14232.478599,-13925.299280,-17257.167652,-14013.098486,-16824.337442,0.000000,0.000000,0.000000,0.000000,0,6,0,0,0,0
2.069234,-2938.964000,-6584.938199,-7725.798177,-12771.731000,-9689.547676,-12131.983112,0.000000,0.000000,0.000000,0.000000,0,6,0,0,0,0
2.072567,-1574.832000,-4656.819565,-5702.924774,-11406.698783,-7352.007360,-9551.388088,0.000000,0.000000,0.000000,0.000000,0,6,0,0,0,0
2.075900,-4985.162000,-10741.963367,-11174.749063,-14816.128567,-12104.597257,-14749.840794,0.000000,0.000000,0.000000,0.000000,0,6,0,0,0,0
2.079234,-8005.095000,-16580.330370,-16242.665248,-17837.862000,-16356.434559,-17760.780721,0.000000,0.000000,0.000000,0.000000,0,6,0,0,0,0
2.082567,-7637.273000,-16955.795380,-16962.337032,-17467.339350,-17267.597916,-17460.107000,0.000000,0.000000,0.000000,0.000000,0,6,0,0,0,0
2.085900,-2988.328000,-6921.242767,-8113.240034,-12821.095000,-10145.248173,-12301.854292,0.000000,0.000000,0.000000,0.000000,0,6,0,0,0,0
2.089234,-2666.860000,-6066.371141,-7474.711450,-12498.426711,-9333.477463,-11626.958519,0.000000,0.000000,0.000000,0.000000,0,6,0,0,0,0
2.092567,-8491.812000,-16444.293389,-16810.749122,-18324.579000,-17168.220756,-18166.859832,0.000000,0.000000,0.000000,0.000000,0,6,0,0,0,0
2.095900,-9242.506000,-19067.447000,-19080.992000,-19075.273000,-19068.952000,-19065.340000,0.000000,0.000000,0.000000,0.000000,0,6,0,0,0,0
2.099234,-9862.867000,-19687.808000,-19701.353000,-19695.634000,-19689.313000,-19685.701000,0.000000,0.000000,0.000000,0.000000,0,6,0,0,0,0
2.102567,-6216.252000,-13202.370326,-14210.322122,-16049.019000,-14998.818040,-16028.294312,0.000000,0.000000,0.000000,0.000000,0,6,0,0,0,0
2.102567,-6216.252000,-13202.370326,-14210.322122,-16049.019000,-14998.818040,-16028.294312,0.000000,0.000000,0.000000,0.000000,0,6,0,0,0,0
2.109234,-9862.867000,-19687.808000,-19701.353000,-19695.634000,-19689.313000,-19676.408158,0.000000,0.000000,0.000000,0.000000,0,6,0,0,0,0
2.112567,-9857.449000,-19609.530483,-19677.619947,-19690.216000,-19683.895000,-19680.283000,0.000000,0.000000,0.000000,0.000000,0,6,0,0,0,0
2.115900,-9822.834000,-19613.294158,-19619.585700,-19655.601000,-19611.495204,-19642.070771,0.000000,0.000000,0.000000,0.000000,0,6,0,0,0,0
2.119234,-9862.867000,-19687.808000,-19701.353000,-19695.634000,-19689.313000,-19685.701000,0.000000,0.000000,0.000000,0.000000,0,6,0,0,0,0
2.122567,-9822.533000,-19573.714982,-19608.475816,-19655.300000,-19616.592032,-19645.367000,0.000000,0.000000,0.000000,0.000000,0,6,0,0,0,0
2.125900,-9862.867000,-19687.808000,-19701.353000,-19695.634000,-19689.313000,-19685.401231,0.000000,0.000000,0.000000,0.000000,0,6,0,0,0,0
2.129234,-9845.409000,-19631.971324,-19659.875259,-19678.176000,-19659.559947,-19668.243000,0.000000,0.000000,0.000000,0.000000,0,6,0,0,0,0
2.132567,-9862.867000,-19687.808000,-19701.353000,-19695.634000,-19689.313000,-19685.401231,0.000000,0.000000,0.000000,0.000000,0,6,0,0,0,0
2.135900,-9859.857000,-19676.702498,-19694.439792,-19692.624000,-19685.103483,-19682.691000,0.000000,0.000000,0.000000,0.000000,0,6,0,0,0,0
2.139234,-9862.867000,-19687.808000,-19701.353000,-19695.634000,-19689.013121,-19685.701000,0.000000,0.000000,0.000000,0.000000,0,6,0,0,0,0
2.142567,-9862.867000,-19687.808000,-19701.353000,-19695.634000,-19689.313000,-19685.701000,0.000000,0.000000,0.000000,0.000000,0,6,0,0,0,0
2.142567,-9862.867000,-19687.808000,-19701.353000,-19695.634000,-19689.313000,-19685.701000,0.000000,0.000000,0.000000,0.000000,0,6,0,0,0,0
2.149234,-9862.867000,-19687.808000,-19701.353000,-19695.634000,-19689.313000,-19685.701000,0.000000,0.000000,0.000000,0.000000,0,6,0,0,0,0
2.152567,-9862.265000,-19686.606333,-19700.450753,-19695.032000,-19688.711000,-19685.099000,0.000000,0.000000,0.000000,0.000000,0,6,0,0,0,0
2.155900,-9862.867000,-19687.808000,-19701.353000,-19695.634000,-19689.313000,-19685.701000,0.000000,0.000000,0.000000,0.000000,0,6,0,0,0,0
2.159234,-9862.867000,-19687.808000,-19701.353000,-19695.634000,-19689.313000,-19685.701000,0.000000,0.000000,0.000000,0.000000,0,6,0,0,0,0
2.159234,-9862.867000,-19687.808000,-19701.353000,-19695.634000,-19689.313000,-19685.701000,0.000000,0.000000,0.000000,0.000000,0,6,0,0,0,0
2.165900,-9862.867000,-19687.808000,-19701.353000,-19695.634000,-19689.313000,-19685.701000,0.000000,0.000000,0.000000,0.000000,0,6,0,0,0,0
2.169234,-9862.867000,-19687.808000,-19701.353000,-19695.634000,-19689.313000,-19685.701000,0.000000,0.000000,0.000000,0.000000,0,6,0,0,0,0
2.172567,-9862.867000,-19687.808000,-19701.353000,-19695.634000,-19689.313000,-19685.701000,0.000000,0.000000,0.000000,0.000000,0,6,0,0,0,0
2.175900,-9862.867000,-19687.808000,-19701.353000,-19695.634000,-19689.313000,-19685.701000,0.000000,0.000000,0.000000,0.000000,0,6,0,0,0,0
2.179234,-9862.867000,-19687.808000,-19701.353000,-19695.634000,-19689.313000,-19685.701000,0.000000,0.000000,0.000000,0.000000,0,6,0,0,0,0
2.182567,-9862.867000,-19687.808000,-19701.353000,-19695.634000,-19689.313000,-19685.701000,0.000000,0.000000,0.000000,0.000000,0,6,0,0,0,0
2.185900,-9862.867000,-19687.808000,-19701.353000,-19695.634000,-19689.313000,-19685.701000,0.000000,0.000000,0.000000,0.000000,0,6,0,0,0,0
2.189234,-9862.867000,-19687.808000,-19701.353000,-19695.634000,-19689.313000,-19685.701000,0.000000,0.000000,0.000000,0.000000,0,6,0,0,0,0
2.192567,-9862.867000,-19687.808000,-19701.353000,-19695.634000,-19689.313000,-19685.701000,0.000000,0.000000,0.000000,0.000000,0,6,0,0,0,0
2.195900,-9862.867000,-19687.808000,-19701.353000,-19695.634000,-19689.313000,-19685.701000,0.000000,0.000000,0.000000,0.000000,0,6,0,0,0,0
2.199234,-9862.867000,-19687.808000,-19701.353000,-19695.634000,-19689.313000,-19685.701000,0.000000,0.000000,0.000000,0.000000,0,6,0,0,0,0
2.199234,-9862.867000,-19687.808000,-19701.353000,-19695.634000,-19689.313000,-19685.701000,0.000000,0.000000,0.000000,0.000000,0,6,0,0,0,0
2.205900,-9862.867000,-19687.808000,-19701.353000,-19695.634000,-19689.313000,-19685.701000,0.000000,0.000000,0.000000,0.000000,0,6,0,0,0,0
2.209234,-9862.867000,-19687.808000,-19701.353000,-19695.634000,-19689.313000,-19685.701000,0.000000,0.000000,0.000000,0.000000,0,6,0,0,0,0
2.212567,-9862.867000,-19687.808000,-19701.353000,-19695.634000,-19689.313000,-19685.701000,0.000000,0.000000,0.000000,0.000000,0,6,0,0,0,0
2.215900,-9862.867000,-19687.808000,-19701.353000,-19695.634000,-19689.313000,-19685.701000,0.000000,0.000000,0.000000,0.000000,0,6,0,0,0,0
2.215900,-9862.867000,-19687.808000,-19701.353000,-19695.634000,-19689.313000,-19685.701000,0.000000,0.000000,0.000000,0.000000,0,6,0,0,0,0
2.222567,-9862.867000,-19687.808000,-19701.353000,-19695.634000,-19689.313000,-19685.701000,0.000000,0.000000,0.000000,0.000000,0,6,0,0,0,0
2.225900,-9862.867000,-19687.808000,-19701.353000,-19695.634000,-19689.313000,-19685.701000,0.000000,0.000000,0.000000,0.000000,0,6,0,0,0,0
2.229234,-9862.867000,-19687.808000,-19701.353000,-19695.634000,-19689.313000,-19685.701000,0.000000,0.000000,0.000000,0.000000,0,6,0,0,0,0
2.232567,-9862.867000,-19687.808000,-19701.353000,-19695.634000,-19689.313000,-19685.701000,0.000000,0.000000,0.000000,0.000000,0,6,0,0,0,0
2.235900,-9862.867000,-19687.808000,-19701.353000,-19695.634000,-19689.313000,-19685.701000,0.000000,0.000000,0.000000,0.000000,0,6,0,0,0,0
2.239234,-9862.867000,-19687.808000,-19701.353000,-19695.634000,-19689.313000,-19685.701000,0.000000,0.000000,0.000000,0.000000,0,6,0,0,0,0
2.239234,-9862.867000,-19687.808000,-19701.353000,-19695.634000,-19689.313000,-19685.701000,0.000000,0.000000,0.000000,0.000000,0,6,0,0,0,0
2.245900,-9862.867000,-19687.808000,-19701.353000,-19695.634000,-19689.313000,-19685.701000,0.000000,0.000000,0.000000,0.000000,0,6,0,0,0,0
2.249234,-9862.867000,-19687.808000,-19701.353000,-19695.634000,-19689.313000,-19685.701000,0.000000,0.000000,0.000000,0.000000,0,6,0,0,0,0
2.252567,-9862.867000,-19687.808000,-19701.353000,-19695.634000,-19689.313000,-19685.701000,0.000000,0.000000,0.000000,0.000000,0,6,0,0,0,0
2.255900,-9862.867000,-19687.808000,-19701.353000,-19695.634000,-19689.313000,-19685.701000,0.000000,0.000000,0.000000,0.000000,0,6,0,0,0,0
2.255900,-9862.867000,-19687.808000,-19701.353000,-19695.634000,-19689.313000,-19685.701000,0.000000,0.000000,0.000000,0.000000,0,6,0,0,0,0
2.262567,-9862.867000,-19687.808000,-19701.353000,-19695.634000,-19689.313000,-19685.701000,0.000000,0.000000,0.000000,0.000000,0,6,0,0,0,0
2.265900,-9862.867000,-19687.808000,-19701.353000,-19695.634000,-19689.313000,-19685.701000,0.000000,0.000000,0.000000,0.000000,0,6,0,0,0,0
2.269234,-9862.867000,-19687.808000,-19701.353000,-19695.634000,-19689.313000,-19685.701000,0.000000,0.000000,0.000000,0.000000,0,6,0,0,0,0
2.272567,-9862.867000,-19687.808000,-19701.353000,-19695.634000,-19689.313000,-19685.701000,0.000000,0.000000,0.000000,0.000000,0,6,0,0,0,0
2.275900,-9862.867000,-19687.808000,-19701.353000,-19695.634000,-19689.313000,-19685.701000,0.000000,0.000000,0.000000,0.000000,0,6,0,0,0,0
2.279234,-9862.867000,-19687.808000,-19701.353000,-19695.634000,-19689.313000,-19685.701000,0.000000,0.000000,0.000000,0.000000,0,6,0,0,0,0
2.282567,-9862.867000,-19687.808000,-19701.353000,-19695.634000,-19689.313000,-19685.701000,0.000000,0.000000,0.000000,0.000000,0,6,0,0,0,0
2.285900,-9862.867000,-19687.808000,-19701.353000,-19695.634000,-19689.313000,-19685.701000,0.000000,0.000000,0.000000,0.000000,0,6,0,0,0,0
2.289234,-9862.867000,-19687.808000,-19701.353000,-19695.634000,-19689.313000,-19685.701000,0.000000,0.000000,0.000000,0.000000,0,6,0,0,0,0
2.292567,-9862.867000,-19687.808000,-19701.353000,-19695.634000,-19689.313000,-19685.701000,0.000000,0.000000,0.000000,0.000000,0,6,0,0,0,0
2.295900,-9862.867000,-19687.808000,-19701.353000,-19695.634000,-19689.313000,-19685.701000,0.000000,0.000000,0.000000,0.000000,0,6,0,0,0,0
2.295900,-9862.867000,-19687.808000,-19701.353000,-19695.634000,-19689.313000,-19685.701000,0.000000,0.000000,0.000000,0.000000,0,6,0,0,0,0
2.302567,-9862.867000,-19687.808000,-19701.353000,-19695.634000,-19689.313000,-19685.701000,0.000000,0.000000,0.000000,0.000000,0,6,0,0,0,0
2.305900,-9862.867000,-19687.808000,-19701.353000,-19695.634000,-19689.313000,-19685.701000,0.000000,0.000000,0.000000,0.000000,0,6,0,0,0,0
2.309234,-9862.867000,-19687.808000,-19701.353000,-19695.333928,-19689.313000,-19685.401231,0.000000,0.000000,0.000000,0.000000,0,6,0,0,0,0
2.312567,-9861.964000,-19686.305333,-19700.149753,-19694.731000,-19688.110121,-19684.798000,0.000000,0.000000,0.000000,0.000000,0,6,0,0,0,0
2.312567,-9861.964000,-19686.305333,-19700.149753,-19694.731000,-19688.110121,-19684.798000,0.000000,0.000000,0.000000,0.000000,0,6,0,0,0,0
2.319234,-9855.944000,-19673.389165,-19688.425065,-19686.910567,-19677.591931,-19674.281463,0.000000,0.000000,0.000000,0.000000,0,6,0,0,0,0
2.322567,-9862.867000,-19687.808000,-19701.353000,-19695.634000,-19689.313000,-19685.701000,0.000000,0.000000,0.000000,0.000000,0,6,0,0,0,0
2.325900,-9848.720000,-19653.871995,-19669.491441,-19671.584616,-19663.470706,-19652.668546,0.000000,0.000000,0.000000,0.000000,0,6,0,0,0,0
2.329234,-9862.867000,-19687.808000,-19701.353000,-19695.634000,-19689.313000,-19685.701000,0.000000,0.000000,0.000000,0.000000,0,6,0,0,0,0
2.332567,-9861.362000,-19672.810497,-19683.334428,-19677.024883,-19679.411379,-19657.216781,0.000000,0.000000,0.000000,0.000000,0,6,0,0,0,0
2.335900,-9844.205000,-19661.050498,-19682.691000,-19676.972000,-19669.151603,-19667.039000,0.000000,0.000000,0.000000,0.000000,0,6,0,0,0,0
2.339234,-9862.867000,-19687.808000,-19701.353000,-19695.634000,-19689.313000,-19685.701000,0.000000,0.000000,0.000000,0.000000,0,6,0,0,0,0
2.342567,-9768.955000,-19474.262472,-19516.466230,-19571.414704,-19538.723806,-19519.844415,0.000000,0.000000,0.000000,0.000000,0,6,0,0,0,0
2.345900,-9862.867000,-19687.808000,-19701.353000,-19695.634000,-19689.313000,-19685.701000,0.000000,0.000000,0.000000,0.000000,0,6,0,0,0,0
2.349234,-9650.662000,-19145.486422,-19200.911105,-19324.990860,-19291.182813,-19172.827589,0.000000,0.000000,0.000000,0.000000,0,6,0,0,0,0
2.352567,-9862.867000,-19687.808000,-19701.353000,-19695.634000,-19689.313000,-19685.701000,0.000000,0.000000,0.000000,0.000000,0,6,0,0,0,0
2.352567,-9862.867000,-19687.808000,-19701.353000,-19695.634000,-19689.313000,-19685.701000,0.000000,0.000000,0.000000,0.000000,0,6,0,0,0,0
2.359234,-6663.237000,-13017.906176,-12922.781560,-15403.140920,-11207.608420,-14495.304380,0.000000,0.000000,0.000000,0.000000,0,6,0,0,0,0
2.362567,-9862.867000,-19687.808000,-19701.353000,-19695.634000,-19067.363262,-19685.701000,0.000000,0.000000,0.000000,0.000000,0,6,0,0,0,0
2.365900,-2398.368000,-7452.959534,-6573.599516,-9851.562176,-4236.928194,-9220.513269,0.000000,0.000000,0.000000,0.000000,0,6,0,0,0,0
2.369234,-1337.343000,-6081.007293,-6531.912284,-10718.801358,-5669.099972,-9039.310589,0.000000,0.000000,0.000000,0.000000,0,6,0,0,0,0
2.372567,-1692.523000,-3175.499019,-3570.866763,-6887.073462,-2859.053607,-4739.675942,0.000000,0.000000,0.000000,0.000000,0,6,0,0,0,0
2.375900,1499.883000,-2954.741891,-2706.874426,-5141.015635,-1276.099990,-4380.987282,0.000000,0.000000,0.000000,0.000000,0,6,0,0,0,0
2.379234,-2051.616000,-7262.720571,-6208.532463,-8176.090319,-4514.225087,-8103.954210,0.000000,0.000000,0.000000,0.000000,0,6,0,0,0,0
2.382567,3248.091000,-344.812687,240.819400,-2119.601142,1432.021756,-1903.740821,0.000000,0.000000,0.000000,0.000000,0,6,0,0,0,0
2.385900,-410.564000,-4516.482642,-4908.861035,-8553.324172,-4105.077389,-6772.263925,0.000000,0.000000,0.000000,0.000000,0,6,0,0,0,0
2.389234,-1432.760000,-5610.938492,-6164.949265,-9819.778971,-5363.878183,-7958.433625,0.000000,0.000000,0.000000,0.000000,0,6,0,0,0,0
2.392567,-158.025000,-3279.890408,-3292.000734,-5575.529133,-2359.439187,-4891.678921,0.000000,0.000000,0.000000,0.000000,0,6,0,0,0,0
2.395900,-651.665000,-6293.330340,-5222.321506,-6884.165323,-3490.322771,-6990.582473,0.000000,0.000000,0.000000,0.000000,0,6,0,0,0,0
2.399234,6364.043000,1566.108861,2202.923082,331.090713,3398.536271,228.069210,0.000000,0.000000,0.000000,0.000000,0,6,0,0,0,0
2.402567,-2264.724000,-4459.804355,-4887.679740,-7850.868729,-4609.780388,-6098.471071,0.000000,0.000000,0.000000,0.000000,0,6,0,0,0,0
2.405900,-833.770000,-5831.992854,-6545.063966,-10177.719329,-6137.735772,-8772.854950,0.000000,0.000000,0.000000,0.000000,0,6,0,0,0,0
2.409234,-2718.331000,-5065.127057,-5091.781678,-6938.246842,-4572.185040,-6181.263689,0.000000,0.000000,0.000000,0.000000,0,6,0,0,0,0
2.412567,3669.491000,-898.770752,-323.790976,-2025.880022,874.615612,-2230.264736,0.000000,0.000000,0.000000,0.000000,0,6,0,0,0,0
2.415900,3862.131000,-1079.423340,-712.428714,-2821.077820,62.959724,-2951.021196,0.000000,0.000000,0.000000,0.000000,0,6,0,0,0,0
2.419234,-2801.407000,-4982.994851,-5497.322704,-9048.010718,-5657.757652,-7385.176369,0.000000,0.000000,0.000000,0.000000,0,6,0,0,0,0
2.422567,-828.352000,-5074.292842,-6040.035349,-10241.317943,-6583.336289,-8762.640645,0.000000,0.000000,0.000000,0.000000,0,6,0,0,0,0
2.425900,-2615.690000,-6005.006805,-6204.839830,-9034.235109,-6021.719470,-8381.149177,0.000000,0.000000,0.000000,0.000000,0,6,0,0,0,0
2.429234,5804.183000,1343.561441,1668.884304,-935.739473,2135.459234,-1142.666216,0.000000,0.000000,0.000000,0.000000,0,6,0,0,0,0
2.432567,-255.549000,-5324.232704,-5074.809827,-8244.672188,-4748.041295,-8006.678722,0.000000,0.000000,0.000000,0.000000,0,6,0,0,0,0
2.435900,-1891.183000,-5434.314341,-6215.336911,-10917.655904,-7240.430551,-9139.599935,0.000000,0.000000,0.000000,0.000000,0,6,0,0,0,0
2.439234,-1770.783000,-5117.823295,-6132.768004,-11029.211742,-7560.253412,-9314.472502,0.000000,0.000000,0.000000,0.000000,0,6,0,0,0,0
2.442567,-1004.136000,-5590.087922,-5974.420950,-10061.516344,-6442.447713,-9322.129098,0.000000,0.000000,0.000000,0.000000,0,6,0,0,0,0
2.445900,3590.027000,-226.252573,-243.523697,-3387.552683,-184.554171,-3261.195872,0.000000,0.000000,0.000000,0.000000,0,6,0,0,0,0
2.449234,-2431.478000,-6735.886356,-6860.117786,-10994.339301,-7252.937924,-10578.602709,0.000000,0.000000,0.000000,0.000000,0,6,0,0,0,0
2.452567,-1478.211000,-4892.413978,-5857.009823,-11222.156618,-7529.775950,-9751.238732,0.000000,0.000000,0.000000,0.000000,0,6,0,0,0,0
2.455900,-2057.636000,-4824.798491,-5674.408533,-10982.384417,-7159.483101,-8726.599257,0.000000,0.000000,0.000000,0.000000,0,6,0,0,0,0
2.459234,-723.905000,-5041.506025,-5748.234368,-10556.672000,-6996.780898,-10057.216053,0.000000,0.000000,0.000000,0.000000,0,6,0,0,0,0
2.462567,-783.503000,-4426.778699,-4476.838458,-7969.032742,-4824.077140,-7609.245498,0.000000,0.000000,0.000000,0.000000,0,6,0,0,0,0
2.465900,-1877.337000,-5645.943062,-5958.891525,-10356.178075,-6917.708837,-10029.557783,0.000000,0.000000,0.000000,0.000000,0,6,0,0,0,0
2.469234,-2162.685000,-5424.872441,-6612.942553,-11995.452000,-9030.521496,-10996.580726,0.000000,0.000000,0.000000,0.000000,0,6,0,0,0,0
2.472567,-1622.089000,-4334.082144,-5240.362767,-10809.700695,-7514.118145,-8572.235676,0.000000,0.000000,0.000000,0.000000,0,6,0,0,0,0
2.475900,-2072.084000,-5936.636751,-6843.005098,-11659.091839,-8636.442610,-11124.511403,0.000000,0.000000,0.000000,0.000000,0,6,0,0,0,0
2.479234,-1886.066000,-6099.624834,-6309.601591,-10048.931012,-7113.562542,-9745.712138,0.000000,0.000000,0.000000,0.000000,0,6,0,0,0,0
2.482567,-1700.650000,-5752.898462,-6198.947035,-10525.774435,-7366.270248,-10221.886550,0.000000,0.000000,0.000000,0.000000,0,6,0,0,0,0
2.485900,-1936.935000,-5157.145765,-6432.229568,-11744.495932,-9145.434419,-10671.906922,0.000000,0.000000,0.000000,0.000000,0,6,0,0,0,0
2.489234,-2160.277000,-5192.492220,-6477.825483,-11791.695530,-9175.654128,-10449.192495,0.000000,0.000000,0.000000,0.000000,0,6,0,0,0,0
2.492567,-1749.412000,-5337.818186,-6076.268132,-10279.565427,-7437.523198,-9447.182822,0.000000,0.000000,0.000000,0.000000,0,6,0,0,0,0
2.495900,-2066.365000,-6855.903804,-7095.498316,-10838.376649,-8059.453480,-10930.837174,0.000000,0.000000,0.000000,0.000000,0,6,0,0,0,0
2.499234,-597.485000,-4747.179319,-4978.385550,-8683.531519,-5931.438705,-8530.574568,0.000000,0.000000,0.000000,0.000000,0,6,0,0,0,0
2.502567,-2012.787000,-5373.019965,-6706.544679,-11310.225133,-9214.089315,-10238.151445,0.000000,0.000000,0.000000,0.000000,0,6,0,0,0,0
2.505900,-2270.443000,-5538.327276,-7428.382178,-12032.092880,-10389.076196,-11441.578968,0.000000,0.000000,0.000000,0.000000,0,6,0,0,0,0
2.509234,-2083.522000,-5626.953175,-6202.607371,-9637.540447,-7148.184063,-8834.621991,0.000000,0.000000,0.000000,0.000000,0,6,0,0,0,0
2.512567,-945.140000,-5944.262354,-6152.619895,-9744.458222,-6889.348149,-10007.459783,0.000000,0.000000,0.000000,0.000000,0,6,0,0,0,0
2.515900,-636.013000,-4869.960506,-5153.525828,-8376.376305,-5863.509542,-8517.842052,0.000000,0.000000,0.000000,0.000000,0,6,0,0,0,0
2.519234,-2287.901000,-5682.914640,-6960.341159,-11441.604532,-9168.632307,-10233.281102,0.000000,0.000000,0.000000,0.000000,0,6,0,0,0,0
2.522567,-2191.280000,-5483.150948,-7398.159401,-11863.808426,-10157.274615,-11333.338365,0.000000,0.000000,0.000000,0.000000,0,6,0,0,0,0
2.525900,-2311.981000,-6121.064571,-6840.002465,-10411.830842,-7855.850238,-9667.715274,0.000000,0.000000,0.000000,0.000000,0,6,0,0,0,0
2.529234,-580.629000,-5509.290504,-5775.798777,-9043.566247,-6373.997844,-9357.868365,0.000000,0.000000,0.000000,0.000000,0,6,0,0,0,0
2.532567,-1951.985000,-6577.514932,-6870.027013,-10362.109533,-7748.352637,-10476.818780,0.000000,0.000000,0.000000,0.000000,0,6,0,0,0,0
2.535900,-2194.591000,-5508.049954,-6856.222276,-11681.974857,-8879.201223,-10561.146693,0.000000,0.000000,0.000000,0.000000,0,6,0,0,0,0
2.539234,-2219.574000,-5528.235619,-7124.705402,-12000.428503,-9505.742166,-10812.755135,0.000000,0.000000,0.000000,0.000000,0,6,0,0,0,0
2.542567,-2354.422000,-6529.302325,-7449.309358,-11465.815347,-8567.022152,-11092.691382,0.000000,0.000000,0.000000,0.000000,0,6,0,0,0,0
2.545900,-2021.215000,-6563.691079,-6861.493101,-9875.905826,-7311.086443,-10128.470418,0.000000,0.000000,0.000000,0.000000,0,6,0,0,0,0
2.549234,-2214.758000,-7063.663818,-7493.996871,-11475.287248,-8391.072753,-11369.106898,0.000000,0.000000,0.000000,0.000000,0,6,0,0,0,0
2.552567,-2593.416000,-5949.451297,-7379.649683,-12321.757862,-9702.055601,-11431.808262,0.000000,0.000000,0.000000,0.000000,0,6,0,0,0,0
2.555900,-1952.587000,-5164.702263,-6365.313707,-11340.046803,-8539.136681,-9802.340757,0.000000,0.000000,0.000000,0.000000,0,6,0,0,0,0
2.559234,-2696.659000,-7038.846365,-8105.304227,-12436.703679,-9858.377243,-12386.395518,0.000000,0.000000,0.000000,0.000000,0,6,0,0,0,0
2.562567,-2160.578000,-6535.447206,-6769.065598,-9920.145928,-7113.385072,-10003.736837,0.000000,0.000000,0.000000,0.000000,0,6,0,0,0,0
2.565900,-2222.283000,-7051.399814,-7492.514468,-11607.042153,-8660.392411,-11553.795439,0.000000,0.000000,0.000000,0.000000,0,6,0,0,0,0
2.569234,-2766.792000,-6187.891146,-7674.025129,-12599.559000,-10390.324416,-12033.554312,0.000000,0.000000,0.000000,0.000000,0,6,0,0,0,0
2.572567,-2125.060000,-5301.794921,-6658.786154,-11873.206630,-8795.276015,-10393.591196,0.000000,0.000000,0.000000,0.000000,0,6,0,0,0,0
2.575900,-2619.904000,-6886.833180,-7925.564587,-12236.618991,-9634.981248,-12126.181826,0.000000,0.000000,0.000000,0.000000,0,6,0,0,0,0
2.579234,-2424.254000,-7242.876644,-7363.313286,-10961.009017,-7911.446044,-11055.805581,0.000000,0.000000,0.000000,0.000000,0,6,0,0,0,0
2.582567,-2339.372000,-7047.056285,-7453.174904,-11586.097925,-8395.435140,-11520.100579,0.000000,0.000000,0.000000,0.000000,0,6,0,0,0,0
2.585900,-2608.165000,-6288.320207,-7908.721392,-12440.932000,-10386.135273,-11960.061738,0.000000,0.000000,0.000000,0.000000,0,6,0,0,0,0
2.589234,-2630.740000,-6021.256139,-7803.991763,-12443.402160,-10250.074105,-11725.434846,0.000000,0.000000,0.000000,0.000000,0,6,0,0,0,0
2.592567,-2343.586000,-6549.648999,-7407.247694,-11529.097189,-8321.380634,-10987.128345,0.000000,0.000000,0.000000,0.000000,0,6,0,0,0,0
2.595900,-2657.830000,-7979.872931,-8036.750797,-11747.918218,-8376.828769,-11872.432488,0.000000,0.000000,0.000000,0.000000,0,6,0,0,0,0
2.599234,-2520.574000,-7303.216636,-7520.883627,-11191.161233,-7950.489092,-11135.338511,0.000000,0.000000,0.000000,0.000000,0,6,0,0,0,0
2.602567,-2400.475000,-6315.099930,-7814.824916,-12069.102487,-9904.355562,-11520.650220,0.000000,0.000000,0.000000,0.000000,0,6,0,0,0,0
2.605900,-3064.481000,-6529.655656,-8425.987485,-12827.631241,-10900.927743,-12595.040124,0.000000,0.000000,0.000000,0.000000,0,6,0,0,0,0
2.609234,-2241.848000,-6715.362396,-7365.859294,-11001.556687,-7721.243182,-10021.455787,0.000000,0.000000,0.000000,0.000000,0,6,0,0,0,0
2.612567,-2730.973000,-8306.075324,-8284.637415,-11920.085056,-8063.727188,-12086.167198,0.000000,0.000000,0.000000,0.000000,0,6,0,0,0,0
2.615900,-2701.475000,-7831.324718,-7893.041816,-11193.819326,-7677.672660,-10962.811737,0.000000,0.000000,0.000000,0.000000,0,6,0,0,0,0
2.619234,-2393.853000,-6605.313000,-8031.586509,-12071.482654,-9253.892633,-11043.090958,0.000000,0.000000,0.000000,0.000000,0,6,0,0,0,0
2.622567,-3070.501000,-6917.063747,-8801.010759,-12796.142212,-10387.556737,-12265.918265,0.000000,0.000000,0.000000,0.000000,0,6,0,0,0,0
2.625900,-2490.173000,-7465.308682,-7988.291763,-11425.423945,-7725.166525,-10213.124426,0.000000,0.000000,0.000000,0.000000,0,6,0,0,0,0
2.629234,-2668.365000,-8567.287401,-8465.829788,-11568.807566,-7586.386069,-11381.753546,0.000000,0.000000,0.000000,0.000000,0,6,0,0,0,0
2.632567,-2789.066000,-8485.900686,-8351.137324,-11652.299608,-7666.303480,-11143.331159,0.000000,0.000000,0.000000,0.000000,0,6,0,0,0,0
2.635900,-2693.950000,-6941.090175,-8258.123052,-12512.013460,-8810.888645,-10949.890893,0.000000,0.000000,0.000000,0.000000,0,6,0,0,0,0
2.639234,-2744.518000,-6755.389453,-8276.264401,-12547.877921,-8974.811033,-10943.202995,0.000000,0.000000,0.000000,0.000000,0,6,0,0,0,0
2.642567,-2926.021000,-8125.432068,-8513.313052,-12419.706374,-8154.117300,-11116.012690,0.000000,0.000000,0.000000,0.000000,0,6,0,0,0,0
2.645900,-2593.416000,-8459.356726,-8245.861600,-11095.662710,-7177.071612,-10242.923996,0.000000,0.000000,0.000000,0.000000,0,6,0,0,0,0
2.649234,-2788.765000,-8593.839545,-8421.094067,-12341.564605,-7686.694154,-11366.957680,0.000000,0.000000,0.000000,0.000000,0,6,0,0,0,0
2.652567,-3058.160000,-7114.006463,-8262.036933,-12890.927000,-8703.088574,-10988.251877,0.000000,0.000000,0.000000,0.000000,0,6,0,0,0,0
2.655900,-2523.584000,-6802.206683,-8110.275559,-12336.246160,-8750.878239,-9985.436537,0.000000,0.000000,0.000000,0.000000,0,6,0,0,0,0
2.659234,-3196.018000,-8272.197539,-8658.707645,-12921.659212,-8235.490199,-11792.496596,0.000000,0.000000,0.000000,0.000000,0,6,0,0,0,0
2.662567,-2689.134000,-8615.641074,-8290.537650,-11094.157305,-7153.737517,-9797.558763,0.000000,0.000000,0.000000,0.000000,0,6,0,0,0,0
2.665900,-2775.521000,-8671.744900,-8488.916694,-12394.636569,-7605.377545,-11359.709062,0.000000,0.000000,0.000000,0.000000,0,6,0,0,0,0
2.669234,-3242.974000,-7458.631668,-8519.510651,-13072.140133,-9015.651170,-11386.801248,0.000000,0.000000,0.000000,0.000000,0,6,0,0,0,0
2.672567,-2687.027000,-6938.065010,-8271.917078,-12519.794000,-8773.078073,-10257.395953,0.000000,0.000000,0.000000,0.000000,0,6,0,0,0,0
2.675900,-3142.741000,-8307.971060,-8749.248845,-12794.264370,-8413.720045,-11705.945225,0.000000,0.000000,0.000000,0.000000,0,6,0,0,0,0
2.679234,-2962.743000,-8927.928583,-8524.514077,-11884.490694,-7519.709352,-10781.920309,0.000000,0.000000,0.000000,0.000000,0,6,0,0,0,0
2.682567,-2897.426000,-8599.957521,-8429.772894,-12419.618237,-7787.258412,-11387.186794,0.000000,0.000000,0.000000,0.000000,0,6,0,0,0,0
2.685900,-3160.801000,-7505.986699,-8585.959799,-12993.568000,-9658.886278,-11787.256506,0.000000,0.000000,0.000000,0.000000,0,6,0,0,0,0
2.689234,-3212.573000,-7325.387810,-8656.046852,-13045.340000,-10015.635560,-11739.205394,0.000000,0.000000,0.000000,0.000000,0,6,0,0,0,0
2.692567,-2930.536000,-7992.623369,-8379.114047,-12642.073817,-8306.772691,-11157.699059,0.000000,0.000000,0.000000,0.000000,0,6,0,0,0,0
2.695900,-3213.175000,-9411.630972,-8810.074949,-12879.401910,-8150.388347,-12091.436553,0.000000,0.000000,0.000000,0.000000,0,6,0,0,0,0
2.699234,-3161.403000,-8836.649681,-8544.227005,-12619.379778,-8086.321294,-11675.445092,0.000000,0.000000,0.000000,0.000000,0,6,0,0,0,0
2.702567,-2933.847000,-7585.762271,-8822.887051,-12766.614000,-10406.240232,-12077.104441,0.000000,0.000000,0.000000,0.000000,0,6,0,0,0,0
2.705900,-3821.496000,-7725.926594,-9630.069918,-13621.855199,-11716.719092,-13336.766899,0.000000,0.000000,0.000000,0.000000,0,6,0,0,0,0
2.709234,-2641.275000,-7776.521720,-7887.186480,-12406.825819,-7927.547891,-10813.280544,0.000000,0.000000,0.000000,0.000000,0,6,0,0,0,0
2.712567,-6372.772000,-14674.859138,-14540.384752,-16194.436327,-14297.683146,-16178.519161,0.000000,0.000000,0.000000,0.000000,0,6,0,0,0,0
2.715900,-7969.878000,-17794.819000,-17808.364000,-17802.645000,-17796.324000,-17734.556794,0.000000,0.000000,0.000000,0.000000,0,6,0,0,0,0
2.719234,-6263.810000,-13150.683469,-14295.410967,-16096.577000,-15150.434169,-16086.644000,0.000000,0.000000,0.000000,0.000000,0,6,0,0,0,0
2.722567,-7702.289000,-17215.403259,-17505.345882,-17532.655422,-17528.735000,-17498.743319,0.000000,0.000000,0.000000,0.000000,0,6,0,0,0,0
2.725900,-9580.529000,-19356.597155,-19342.151828,-19413.296000,-19330.505770,-19403.363000,0.000000,0.000000,0.000000,0.000000,0,6,0,0,0,0
2.729234,-9862.867000,-19687.808000,-19701.353000,-19694.133639,-19689.313000,-19682.103771,0.000000,0.000000,0.000000,0.000000,0,6,0,0,0,0
2.732567,-9853.837000,-19590.926812,-19637.077595,-19686.604000,-19656.592533,-19675.471924,0.000000,0.000000,0.000000,0.000000,0,6,0,0,0,0
2.735900,-9862.867000,-19687.808000,-19701.353000,-19695.333928,-19689.313000,-19685.701000,0.000000,0.000000,0.000000,0.000000,0,6,0,0,0,0
2.739234,-9857.750000,-19639.814823,-19677.620701,-19690.517000,-19684.196000,-19676.986771,0.000000,0.000000,0.000000,0.000000,0,6,0,0,0,0
2.742567,-9862.867000,-19687.808000,-19701.353000,-19695.634000,-19685.414569,-19685.701000,0.000000,0.000000,0.000000,0.000000,0,6,0,0,0,0
2.745900,-9862.265000,-19680.609665,-19700.751000,-19695.032000,-19688.711000,-19683.600154,0.000000,0.000000,0.000000,0.000000,0,6,0,0,0,0
2.749234,-9862.566000,-19686.607500,-19697.749286,-19695.333000,-19685.113569,-19685.400000,0.000000,0.000000,0.000000,0.000000,0,6,0,0,0,0
2.752567,-9862.867000,-19687.808000,-19701.353000,-19695.634000,-19689.313000,-19685.401231,0.000000,0.000000,0.000000,0.000000,0,6,0,0,0,0
2.755900,-9861.964000,-19682.407499,-19697.447532,-19694.731000,-19687.210483,-19684.798000,0.000000,0.000000,0.000000,0.000000,0,6,0,0,0,0
2.759234,-9862.867000,-19687.808000,-19701.353000,-19695.634000,-19689.313000,-19685.701000,0.000000,0.000000,0.000000,0.000000,0,6,0,0,0,0
2.762567,-9862.867000,-19686.308833,-19700.752506,-19695.634000,-19689.313000,-19685.701000,0.000000,0.000000,0.000000,0.000000,0,6,0,0,0,0
2.765900,-9862.867000,-19687.808000,-19701.353000,-19695.634000,-19689.313000,-19685.701000,0.000000,0.000000,0.000000,0.000000,0,6,0,0,0,0
2.769234,-9862.867000,-19687.808000,-19701.353000,-19695.634000,-19689.313000,-19685.701000,0.000000,0.000000,0.000000,0.000000,0,6,0,0,0,0
2.772567,-9862.867000,-19687.808000,-19701.353000,-19695.634000,-19689.313000,-19685.701000,0.000000,0.000000,0.000000,0.000000,0,6,0,0,0,0
2.775900,-9862.867000,-19687.808000,-19701.353000,-19695.634000,-19689.313000,-19685.701000,0.000000,0.000000,0.000000,0.000000,0,6,0,0,0,0
2.779234,-9862.867000,-19687.808000,-19701.353000,-19695.634000,-19689.313000,-19685.701000,0.000000,0.000000,0.000000,0.000000,0,6,0,0,0,0
2.782567,-9862.867000,-19687.808000,-19701.353000,-19695.634000,-19689.313000,-19685.701000,0.000000,0.000000,0.000000,0.000000,0,6,0,0,0,0
2.785900,-9862.867000,-19687.808000,-19701.353000,-19695.634000,-19689.313000,-19685.701000,0.000000,0.000000,0.000000,0.000000,0,6,0,0,0,0
2.789234,-9862.867000,-19687.808000,-19701.353000,-19695.634000,-19689.313000,-19685.701000,0.000000,0.000000,0.000000,0.000000,0,6,0,0,0,0
2.792567,-9862.867000,-19687.808000,-19701.353000,-19695.634000,-19689.313000,-19685.701000,0.000000,0.000000,0.000000,0.000000,0,6,0,0,0,0
2.795900,-9862.867000,-19687.808000,-19701.353000,-19695.634000,-19689.313000,-19685.701000,0.000000,0.000000,0.000000,0.000000,0,6,0,0,0,0
2.799234,-9862.867000,-19687.808000,-19701.353000,-19695.634000,-19689.313000,-19685.701000,0.000000,0.000000,0.000000,0.000000,0,6,0,0,0,0
2.802567,-9862.867000,-19687.808000,-19701.353000,-19695.634000,-19689.313000,-19685.701000,0.000000,0.000000,0.000000,0.000000,0,6,0,0,0,0
2.805900,-9862.867000,-19687.808000,-19701.353000,-19695.634000,-19689.313000,-19685.701000,0.000000,0.000000,0.000000,0.000000,0,6,0,0,0,0
2.809234,-9862.867000,-19687.808000,-19701.353000,-19695.634000,-19689.313000,-19685.701000,0.000000,0.000000,0.000000,0.000000,0,6,0,0,0,0
2.812567,-9862.867000,-19687.808000,-19701.353000,-19695.634000,-19689.313000,-19685.701000,0.000000,0.000000,0.000000,0.000000,0,6,0,0,0,0
2.815900,-9862.867000,-19687.808000,-19701.353000,-19695.634000,-19689.313000,-19685.701000,0.000000,0.000000,0.000000,0.000000,0,6,0,0,0,0
2.819234,-9862.867000,-19687.808000,-19701.353000,-19695.634000,-19689.313000,-19685.701000,0.000000,0.000000,0.000000,0.000000,0,6,0,0,0,0
2.822567,-9862.867000,-19687.808000,-19701.353000,-19695.634000,-19689.313000,-19685.701000,0.000000,0.000000,0.000000,0.000000,0,6,0,0,0,0
2.825900,-9862.566000,-19687.507000,-19701.052000,-19695.333000,-19689.012000,-19685.400000,0.000000,0.000000,0.000000,0.000000,0,6,0,0,0,0
2.829234,-9862.265000,-19684.207666,-19698.649273,-19695.032000,-19686.311965,-19685.099000,0.000000,0.000000,0.000000,0.000000,0,6,0,0,0,0
2.832567,-9862.867000,-19687.808000,-19701.353000,-19695.634000,-19689.313000,-19685.701000,0.000000,0.000000,0.000000,0.000000,0,6,0,0,0,0
2.835900,-9858.653000,-19674.299164,-19689.332584,-19691.420000,-19676.402499,-19681.187231,0.000000,0.000000,0.000000,0.000000,0,6,0,0,0,0
2.839234,-9862.867000,-19687.808000,-19701.353000,-19695.634000,-19689.313000,-19685.701000,0.000000,0.000000,0.000000,0.000000,0,6,0,0,0,0
2.842567,-9850.225000,-19665.871164,-19679.703597,-19682.992000,-19665.575465,-19673.059000,0.000000,0.000000,0.000000,0.000000,0,6,0,0,0,0
2.845900,-9862.867000,-19686.908500,-19701.353000,-19695.634000,-19689.313000,-19685.701000,0.000000,0.000000,0.000000,0.000000,0,6,0,0,0,0
2.849234,-9849.924000,-19674.865000,-19688.410000,-19682.691000,-19676.370000,-19672.758000,0.000000,0.000000,0.000000,0.000000,0,6,0,0,0,0
2.852567,-9862.867000,-19624.842985,-19653.613764,-19695.634000,-19640.732548,-19683.602616,0.000000,0.000000,0.000000,0.000000,0,6,0,0,0,0
2.855900,-9862.867000,-19687.808000,-19701.353000,-19695.634000,-19689.313000,-19685.701000,0.000000,0.000000,0.000000,0.000000,0,6,0,0,0,0
2.859234,-9796.346000,-19449.482459,-19493.716020,-19629.113000,-19464.755591,-19613.784156,0.000000,0.000000,0.000000,0.000000,0,6,0,0,0,0
2.862567,-9862.867000,-19687.808000,-19701.353000,-19695.634000,-19689.313000,-19685.701000,0.000000,0.000000,0.000000,0.000000,0,6,0,0,0,0
2.865900,-9657.585000,-19275.341117,-19303.612824,-19490.352000,-19248.625723,-19475.922463,0.000000,0.000000,0.000000,0.000000,0,6,0,0,0,0
2.869234,-9435.146000,-19062.196953,-19213.282400,-19267.913000,-19197.417823,-19253.483463,0.000000,0.000000,0.000000,0.000000,0,6,0,0,0,0
2.872567,-6531.098000,-11217.194280,-12480.787898,-16363.865000,-11480.906279,-16232.525513,0.000000,0.000000,0.000000,0.000000,0,6,0,0,0,0
2.875900,-9790.928000,-19615.869000,-19629.414000,-19623.695000,-19617.374000,-19613.762000,0.000000,0.000000,0.000000,0.000000,0,6,0,0,0,0
2.879234,-9588.054000,-18890.085542,-18988.479970,-19420.821000,-18979.075208,-19391.702777,0.000000,0.000000,0.000000,0.000000,0,6,0,0,0,0
2.882567,-9862.867000,-19687.808000,-19701.353000,-19695.634000,-19689.313000,-19685.701000,0.000000,0.000000,0.000000,0.000000,0,6,0,0,0,0
2.885900,-3375.113000,-8058.210946,-8894.549284,-13207.880000,-7834.918448,-13059.753443,0.000000,0.000000,0.000000,0.000000,0,6,0,0,0,0
2.889234,-1705.165000,-5504.054236,-6530.130516,-11537.932000,-5677.366651,-11064.555965,0.000000,0.000000,0.000000,0.000000,0,6,0,0,0,0
2.892567,-2562.714000,-6519.915273,-6869.453599,-12395.481000,-5577.400940,-11351.944129,0.000000,0.000000,0.000000,0.000000,0,6,0,0,0,0
2.895900,-4265.772000,-10334.400108,-9805.925310,-14098.539000,-7630.418122,-14040.942712,0.000000,0.000000,0.000000,0.000000,0,6,0,0,0,0
2.899234,-2707.495000,-7448.760626,-7185.975749,-12540.262000,-5600.131051,-11477.240138,0.000000,0.000000,0.000000,0.000000,0,6,0,0,0,0
2.902567,-1352.393000,-4918.911347,-5688.556782,-11185.160000,-5017.218335,-9908.102997,0.000000,0.000000,0.000000,0.000000,0,6,0,0,0,0
2.905900,-2221.079000,-6659.213054,-7720.398750,-12053.846000,-6714.470933,-12043.913000,0.000000,0.000000,0.000000,0.000000,0,6,0,0,0,0
2.909234,-1414.098000,-4734.453122,-4896.960476,-11245.664711,-4143.299814,-8486.850240,0.000000,0.000000,0.000000,0.000000,0,6,0,0,0,0
2.912567,-1867.705000,-7466.194330,-6817.272923,-11700.472000,-4755.842861,-11372.483981,0.000000,0.000000,0.000000,0.000000,0,6,0,0,0,0
2.915900,-1925.497000,-6662.265125,-6189.901805,-11754.963205,-4855.617968,-10423.951099,0.000000,0.000000,0.000000,0.000000,0,6,0,0,0,0
2.919234,-1470.686000,-5154.439208,-5810.752990,-11303.453000,-5445.886445,-9885.804288,0.000000,0.000000,0.000000,0.000000,0,6,0,0,0,0
2.922567,-2215.360000,-6469.996010,-7456.767779,-12046.626639,-6824.505356,-11858.932076,0.000000,0.000000,0.000000,0.000000,0,6,0,0,0,0
2.925900,-1624.497000,-5859.943673,-5942.645976,-11453.663133,-5082.705474,-9706.871582,0.000000,0.000000,0.000000,0.000000,0,6,0,0,0,0
2.929234,-1795.164000,-7389.755495,-6710.503792,-11627.931000,-5023.664904,-10945.016362,0.000000,0.000000,0.000000,0.000000,0,6,0,0,0,0
2.932567,-1925.798000,-7467.019149,-6676.902812,-11730.358210,-5220.872116,-10867.011065,0.000000,0.000000,0.000000,0.000000,0,6,0,0,0,0
2.935900,-1779.813000,-6067.730518,-6459.759328,-11612.580000,-5868.067954,-10521.379842,0.000000,0.000000,0.000000,0.000000,0,6,0,0,0,0
2.939234,-1854.160000,-6172.060859,-6822.343223,-11621.511253,-6179.019748,-10733.620630,0.000000,0.000000,0.000000,0.000000,0,6,0,0,0,0
2.942567,-2040.780000,-7682.745173,-7290.294442,-11873.547000,-5692.110765,-11102.500245,0.000000,0.000000,0.000000,0.000000,0,6,0,0,0,0
2.945900,-1683.192000,-6920.082244,-6014.852081,-10744.173211,-4668.790644,-9478.687550,0.000000,0.000000,0.000000,0.000000,0,6,0,0,0,0
2.949234,-1839.411000,-7863.064097,-6871.546784,-11517.040654,-5017.532176,-10732.361239,0.000000,0.000000,0.000000,0.000000,0,6,0,0,0,0
2.952567,-2133.187000,-6907.134467,-7150.910939,-11965.954000,-6053.509527,-10686.199075,0.000000,0.000000,0.000000,0.000000,0,6,0,0,0,0
2.955900,-1528.478000,-5568.433293,-5915.083239,-11252.318779,-5273.371117,-8701.053352,0.000000,0.000000,0.000000,0.000000,0,6,0,0,0,0
2.959234,-2252.985000,-8375.283287,-7936.055771,-12085.752000,-5660.813746,-11490.669709,0.000000,0.000000,0.000000,0.000000,0,6,0,0,0,0
2.962567,-1729.245000,-7004.813753,-5896.970347,-9658.353740,-4403.269017,-8316.970830,0.000000,0.000000,0.000000,0.000000,0,6,0,0,0,0
2.965900,-1763.258000,-7884.956621,-6787.887615,-10883.953586,-4713.470883,-9984.125908,0.000000,0.000000,0.000000,0.000000,0,6,0,0,0,0
2.969234,-2240.343000,-7450.248237,-7519.281625,-12073.110000,-6005.927791,-10563.731942,0.000000,0.000000,0.000000,0.000000,0,6,0,0,0,0
2.972567,-1618.176000,-6032.923048,-6389.997838,-11146.669754,-5526.803233,-8533.249691,0.000000,0.000000,0.000000,0.000000,0,6,0,0,0,0
2.975900,-2116.331000,-8216.441615,-7697.618117,-11645.124826,-5375.119717,-10629.773554,0.000000,0.000000,0.000000,0.000000,0,6,0,0,0,0
2.979234,-1912.554000,-7997.972779,-6689.480033,-9800.552844,-4550.292617,-8761.378719,0.000000,0.000000,0.000000,0.000000,0,6,0,0,0,0
2.982567,-1802.990000,-7975.060632,-6812.006783,-10340.045089,-4679.732446,-9336.187584,0.000000,0.000000,0.000000,0.000000,0,6,0,0,0,0
2.985900,-2046.198000,-7563.432477,-7573.440699,-11803.046725,-5897.548280,-10017.957783,0.000000,0.000000,0.000000,0.000000,0,6,0,0,0,0
2.989234,-2034.459000,-7337.912260,-7546.989608,-11749.597684,-6024.653411,-9676.172999,0.000000,0.000000,0.000000,0.000000,0,6,0,0,0,0
2.992567,-1828.575000,-7522.111519,-6950.484566,-10391.736373,-5017.791712,-8714.271319,0.000000,0.000000,0.000000,0.000000,0,6,0,0,0,0
2.995900,-2052.820000,-9298.594054,-7819.959865,-10733.609689,-4800.614333,-10032.673549,0.000000,0.000000,0.000000,0.000000,0,6,0,0,0,0
2.999234,-1653.694000,-7652.460925,-6471.753840,-9235.919237,-4404.487126,-8480.935344,0.000000,0.000000,0.000000,0.000000,0,6,0,0,0,0
3.002567,-1870.113000,-7138.785585,-7181.478275,-11065.526573,-5910.387260,-9204.263899,0.000000,0.000000,0.000000,0.000000,0,6,0,0,0,0
3.005900,-2254.791000,-7766.028809,-7972.089902,-11924.618776,-6414.117356,-10368.941107,0.000000,0.000000,0.000000,0.000000,0,6,0,0,0,0
3.009234,-2022.419000,-7173.556890,-6731.489264,-9473.512670,-5384.366208,-8152.097639,0.000000,0.000000,0.000000,0.000000,0,6,0,0,0,0
3.012567,-754.607000,-8407.254984,-6702.795664,-9510.114676,-3846.063049,-9204.198735,0.000000,0.000000,0.000000,0.000000,0,6,0,0,0,0
3.015900,-417.186000,-6442.937931,-5305.203336,-7678.634017,-3427.374750,-7352.643990,0.000000,0.000000,0.000000,0.000000,0,6,0,0,0,0
3.019234,-2322.215000,-7298.250182,-7551.312662,-11291.374107,-6740.637100,-9511.277652,0.000000,0.000000,0.000000,0.000000,0,6,0,0,0,0
3.022567,-1984.794000,-7172.211732,-7666.663783,-11585.305090,-6771.467921,-10146.607395,0.000000,0.000000,0.000000,0.000000,0,6,0,0,0,0
3.025900,-2397.766000,-7867.027132,-7507.365449,-10199.043968,-6201.435466,-8950.119075,0.000000,0.000000,0.000000,0.000000,0,6,0,0,0,0
3.029234,465.647000,-6038.039378,-5057.992738,-7402.547077,-2912.493692,-7295.075334,0.000000,0.000000,0.000000,0.000000,0,6,0,0,0,0
3.032567,-1677.172000,-7853.740134,-6952.807910,-9398.930826,-5193.557065,-9201.076741,0.000000,0.000000,0.000000,0.000000,0,6,0,0,0,0
3.035900,-2124.458000,-7051.320503,-7455.039068,-11201.042968,-6816.070173,-9580.614924,0.000000,0.000000,0.000000,0.000000,0,6,0,0,0,0
3.039234,-2141.916000,-6950.044475,-7690.776466,-11547.980282,-7386.205784,-9968.287767,0.000000,0.000000,0.000000,0.000000,0,6,0,0,0,0
3.042567,-2067.268000,-7941.903895,-7718.212367,-10676.340425,-6371.136194,-10073.201461,0.000000,0.000000,0.000000,0.000000,0,6,0,0,0,0
3.045900,-635.110000,-6388.613200,-5578.072494,-7509.464834,-4245.657175,-7580.760140,0.000000,0.000000,0.000000,0.000000,0,6,0,0,0,0
3.049234,-2333.653000,-8565.990147,-7887.617661,-10872.508522,-6406.014349,-10682.522316,0.000000,0.000000,0.000000,0.000000,0,6,0,0,0,0
3.052567,-2262.918000,-6994.289124,-7516.035403,-11345.804484,-7276.000818,-10159.135969,0.000000,0.000000,0.000000,0.000000,0,6,0,0,0,0
3.055900,-1961.015000,-6224.346179,-6985.344368,-10993.189277,-7075.756912,-9087.425909,0.000000,0.000000,0.000000,0.000000,0,6,0,0,0,0
3.059234,-2297.232000,-7986.870685,-7999.218317,-11413.426503,-7167.572255,-11102.649661,0.000000,0.000000,0.000000,0.000000,0,6,0,0,0,0
3.062567,-1896.902000,-7292.104281,-6699.048762,-8509.293773,-5657.388842,-8617.725312,0.000000,0.000000,0.000000,0.000000,0,6,0,0,0,0
3.065900,-2122.351000,-8093.233418,-7588.943853,-10705.617213,-6635.834848,-10597.722878,0.000000,0.000000,0.000000,0.000000,0,6,0,0,0,0
3.069234,-2529.604000,-7135.644761,-7789.927325,-11766.727613,-7917.835864,-10771.755515,0.000000,0.000000,0.000000,0.000000,0,6,0,0,0,0
3.072567,-1967.336000,-6131.122489,-7079.637670,-11171.751740,-7414.943972,-9337.159422,0.000000,0.000000,0.000000,0.000000,0,6,0,0,0,0
3.075900,-2450.140000,-7886.719291,-7989.092323,-11495.817527,-7552.586859,-11205.496221,0.000000,0.000000,0.000000,0.000000,0,6,0,0,0,0
3.079234,-2219.875000,-8021.351544,-7453.176116,-9650.263686,-6387.597977,-9933.533584,0.000000,0.000000,0.000000,0.000000,0,6,0,0,0,0
3.082567,-2197.601000,-8007.772713,-7620.658072,-10515.603357,-6877.217999,-10599.229678,0.000000,0.000000,0.000000,0.000000,0,6,0,0,0,0
3.085900,-2345.693000,-6869.579408,-7718.008369,-11854.682058,-8228.425885,-10860.634399,0.000000,0.000000,0.000000,0.000000,0,6,0,0,0,0
3.089234,-2489.571000,-6462.963277,-7673.631647,-11919.641060,-8452.071788,-10653.482778,0.000000,0.000000,0.000000,0.000000,0,6,0,0,0,0
3.092567,-2065.763000,-7023.508344,-7360.914950,-10528.700247,-7219.789105,-10058.206851,0.000000,0.000000,0.000000,0.000000,0,6,0,0,0,0
3.095900,-2510.942000,-8548.387434,-8159.184146,-10929.468556,-7436.460053,-11391.301937,0.000000,0.000000,0.000000,0.000000,0,6,0,0,0,0
3.099234,-1185.639000,-6326.282721,-6125.599027,-9033.728237,-5726.411868,-9259.020509,0.000000,0.000000,0.000000,0.000000,0,6,0,0,0,0
3.102567,-2389.338000,-6650.570345,-7739.735355,-11864.118824,-8969.590215,-10984.917288,0.000000,0.000000,0.000000,0.000000,0,6,0,0,0,0
3.105900,-2766.792000,-6549.790065,-8033.420507,-12414.114359,-9897.622671,-11850.095620,0.000000,0.000000,0.000000,0.000000,0,6,0,0,0,0
3.109234,-1904.728000,-5978.564467,-6435.151439,-10043.887305,-6787.363308,-9414.843363,0.000000,0.000000,0.000000,0.000000,0,6,0,0,0,0
3.112567,-5003.523000,-12307.764568,-12148.795517,-14529.316103,-12245.309025,-14593.136637,0.000000,0.000000,0.000000,0.000000,0,6,0,0,0,0
3.115900,-6228.593000,-13755.011121,-13729.958180,-15553.337706,-13918.998508,-15471.973322,0.000000,0.000000,0.000000,0.000000,0,6,0,0,0,0
3.119234,-1892.688000,-5359.961490,-6514.686703,-11293.050909,-8528.417892,-10687.613742,0.000000,0.000000,0.000000,0.000000,0,6,0,0,0,0
3.122567,-2959.432000,-6480.075836,-8165.110414,-12772.094160,-10984.802723,-12449.222525,0.000000,0.000000,0.000000,0.000000,0,6,0,0,0,0
3.125900,-5827.962000,-11663.619553,-12061.985585,-15235.526643,-12933.602807,-14865.700717,0.000000,0.000000,0.000000,0.000000,0,6,0,0,0,0
3.129234,-9862.867000,-19687.808000,-19701.353000,-19695.634000,-19689.313000,-19685.701000,0.000000,0.000000,0.000000,0.000000,0,6,0,0,0,0
3.132567,-8259.741000,-18084.682000,-18098.227000,-18061.600560,-18030.709323,-18019.623488,0.000000,0.000000,0.000000,0.000000,0,6,0,0,0,0
3.135900,-5890.269000,-11802.384071,-12879.413199,-15723.036000,-14515.098511,-15615.977810,0.000000,0.000000,0.000000,0.000000,0,6,0,0,0,0
3.139234,-3038.595000,-6303.480942,-7947.029116,-12871.362000,-10316.966303,-12485.218774,0.000000,0.000000,0.000000,0.000000,0,6,0,0,0,0
3.142567,-8707.629000,-17313.447377,-17774.781060,-18532.894194,-18118.742123,-18449.825111,0.000000,0.000000,0.000000,0.000000,0,6,0,0,0,0
3.145900,-9862.867000,-19687.808000,-19701.353000,-19695.634000,-19689.313000,-19685.701000,0.000000,0.000000,0.000000,0.000000,0,6,0,0,0,0
3.149234,-8518.300000,-18343.241000,-18356.786000,-18344.765483,-18313.558549,-18311.157090,0.000000,0.000000,0.000000,0.000000,0,6,0,0,0,0
3.152567,-7258.314000,-15729.807012,-16147.419729,-17091.081000,-16577.064288,-17026.290254,0.000000,0.000000,0.000000,0.000000,0,6,0,0,0,0
3.155900,-4010.223000,-7690.977874,-9076.887162,-13840.889494,-10343.674523,-13050.060100,0.000000,0.000000,0.000000,0.000000,0,6,0,0,0,0
3.159234,-9278.024000,-19102.965000,-19116.510000,-19110.791000,-19099.372051,-19100.858000,0.000000,0.000000,0.000000,0.000000,0,6,0,0,0,0
3.162567,-9810.192000,-19385.971441,-19452.616862,-19642.959000,-19505.590731,-19567.376566,0.000000,0.000000,0.000000,0.000000,0,6,0,0,0,0
3.165900,-9562.469000,-19387.410000,-19400.955000,-19395.236000,-19388.915000,-19385.303000,0.000000,0.000000,0.000000,0.000000,0,6,0,0,0,0
3.169234,-7028.350000,-15231.791948,-15767.932840,-16861.117000,-15995.641710,-16737.271740,0.000000,0.000000,0.000000,0.000000,0,6,0,0,0,0
3.172567,-5850.537000,-10578.609956,-12204.959537,-15683.304000,-12693.183632,-15256.092407,0.000000,0.000000,0.000000,0.000000,0,6,0,0,0,0
3.175900,-9862.867000,-19687.808000,-19701.353000,-19695.634000,-19689.313000,-19685.701000,0.000000,0.000000,0.000000,0.000000,0,6,0,0,0,0
3.179234,-9541.399000,-19076.700931,-19132.481666,-19374.166000,-19154.031035,-19317.169251,0.000000,0.000000,0.000000,0.000000,0,6,0,0,0,0
3.182567,-9862.867000,-19687.808000,-19701.353000,-19695.634000,-19689.313000,-19685.701000,0.000000,0.000000,0.000000,0.000000,0,6,0,0,0,0
3.185900,-7826.000000,-17275.249744,-17569.307775,-17658.767000,-17567.580149,-17631.447392,0.000000,0.000000,0.000000,0.000000,0,6,0,0,0,0
3.189234,-9446.283000,-18902.728746,-19284.769000,-19279.050000,-19272.729000,-19269.117000,0.000000,0.000000,0.000000,0.000000,0,6,0,0,0,0
3.192567,-9862.867000,-19687.808000,-19694.747571,-19695.634000,-19682.115896,-19685.101462,0.000000,0.000000,0.000000,0.000000,0,6,0,0,0,0
3.195900,-9831.864000,-19606.432988,-19659.541116,-19664.631000,-19649.613499,-19652.299847,0.000000,0.000000,0.000000,0.000000,0,6,0,0,0,0
3.199234,-9862.867000,-19687.808000,-19701.353000,-19695.634000,-19689.313000,-19685.701000,0.000000,0.000000,0.000000,0.000000,0,6,0,0,0,0
3.202567,-9165.751000,-18972.102329,-18989.825155,-18998.518000,-18979.602068,-18985.887078,0.000000,0.000000,0.000000,0.000000,0,6,0,0,0,0
3.205900,-9395.715000,-19220.656000,-19234.201000,-19228.482000,-19222.161000,-19218.549000,0.000000,0.000000,0.000000,0.000000,0,6,0,0,0,0
3.209234,-9862.867000,-19687.808000,-19696.549052,-19695.634000,-19684.814810,-19685.101462,0.000000,0.000000,0.000000,0.000000,0,6,0,0,0,0
3.212567,-9841.195000,-19662.537999,-19679.681000,-19673.962000,-19667.641000,-19664.029000,0.000000,0.000000,0.000000,0.000000,0,6,0,0,0,0
3.215900,-9856.847000,-19681.788000,-19695.032753,-19689.614000,-19682.993121,-19679.681000,0.000000,0.000000,0.000000,0.000000,0,6,0,0,0,0
3.219234,-9862.867000,-19685.409333,-19701.353000,-19695.634000,-19689.313000,-19685.701000,0.000000,0.000000,0.000000,0.000000,0,6,0,0,0,0
3.222567,-9845.108000,-19670.049000,-19683.594000,-19677.875000,-19671.554000,-19667.942000,0.000000,0.000000,0.000000,0.000000,0,6,0,0,0,0
3.225900,-9862.867000,-19687.808000,-19701.353000,-19695.634000,-19689.313000,-19685.701000,0.000000,0.000000,0.000000,0.000000,0,6,0,0,0,0
3.229234,-9853.235000,-19678.176000,-19691.721000,-19686.002000,-19679.681000,-19676.069000,0.000000,0.000000,0.000000,0.000000,0,6,0,0,0,0
3.232567,-9862.867000,-19687.808000,-19701.353000,-19695.634000,-19689.313000,-19685.701000,0.000000,0.000000,0.000000,0.000000,0,6,0,0,0,0
3.235900,-9860.760000,-19685.701000,-19699.246000,-19693.527000,-19687.206000,-19683.594000,0.000000,0.000000,0.000000,0.000000,0,6,0,0,0,0
3.239234,-9862.867000,-19687.808000,-19701.353000,-19695.634000,-19689.313000,-19685.701000,0.000000,0.000000,0.000000,0.000000,0,6,0,0,0,0
3.242567,-9862.867000,-19687.808000,-19701.353000,-19695.634000,-19689.313000,-19685.701000,0.000000,0.000000,0.000000,0.000000,0,6,0,0,0,0
3.245900,-9862.265000,-19687.206000,-19700.751000,-19695.032000,-19688.711000,-19685.099000,0.000000,0.000000,0.000000,0.000000,0,6,0,0,0,0
3.249234,-9862.867000,-19687.808000,-19701.353000,-19695.634000,-19689.313000,-19685.701000,0.000000,0.000000,0.000000,0.000000,0,6,0,0,0,0
3.252567,-9862.566000,-19687.507000,-19701.052000,-19695.333000,-19689.012000,-19685.400000,0.000000,0.000000,0.000000,0.000000,0,6,0,0,0,0
3.255900,-9862.867000,-19687.808000,-19701.353000,-19695.634000,-19689.313000,-19685.701000,0.000000,0.000000,0.000000,0.000000,0,6,0,0,0,0
3.259234,-9862.867000,-19687.808000,-19701.353000,-19695.634000,-19689.313000,-19685.701000,0.000000,0.000000,0.000000,0.000000,0,6,0,0,0,0
3.262567,-9862.867000,-19687.808000,-19701.353000,-19695.634000,-19689.313000,-19685.701000,0.000000,0.000000,0.000000,0.000000,0,6,0,0,0,0
3.265900,-9862.867000,-19687.808000,-19701.353000,-19695.634000,-19689.313000,-19685.701000,0.000000,0.000000,0.000000,0.000000,0,6,0,0,0,0
3.269234,-9862.867000,-19687.808000,-19701.353000,-19695.634000,-19689.313000,-19685.701000,0.000000,0.000000,0.000000,0.000000,0,6,0,0,0,0
3.272567,-9862.867000,-19687.808000,-19701.353000,-19695.634000,-19689.313000,-19685.701000,0.000000,0.000000,0.000000,0.000000,0,6,0,0,0,0
3.275900,-9862.867000,-19687.808000,-19701.353000,-19695.634000,-19689.313000,-19685.701000,0.000000,0.000000,0.000000,0.000000,0,6,0,0,0,0
3.279234,-9862.867000,-19687.808000,-19701.353000,-19695.634000,-19689.313000,-19685.701000,0.000000,0.000000,0.000000,0.000000,0,6,0,0,0,0
3.282567,-9862.867000,-19687.808000,-19701.353000,-19695.634000,-19689.313000,-19685.701000,0.000000,0.000000,0.000000,0.000000,0,6,0,0,0,0
3.285900,-9862.867000,-19687.808000,-19701.353000,-19695.634000,-19689.313000,-19685.701000,0.000000,0.000000,0.000000,0.000000,0,6,0,0,0,0
3.289234,-9862.867000,-19687.808000,-19701.353000,-19695.634000,-19689.313000,-19685.701000,0.000000,0.000000,0.000000,0.000000,0,6,0,0,0,0
3.292567,-9862.867000,-19687.808000,-19701.353000,-19695.634000,-19689.313000,-19685.701000,0.000000,0.000000,0.000000,0.000000,0,6,0,0,0,0
3.292567,-9862.867000,-19687.808000,-19701.353000,-19695.634000,-19689.313000,-19685.701000,0.000000,0.000000,0.000000,0.000000,0,6,0,0,0,0
3.299234,-9862.867000,-19687.808000,-19701.353000,-19695.634000,-19689.313000,-19685.701000,0.000000,0.000000,0.000000,0.000000,0,6,0,0,0,0
3.302567,-9862.566000,-19687.507000,-19701.052000,-19695.333000,-19689.012000,-19685.400000,0.000000,0.000000,0.000000,0.000000,0,6,0,0,0,0
3.305900,-9862.867000,-19687.808000,-19701.353000,-19695.634000,-19689.313000,-19685.701000,0.000000,0.000000,0.000000,0.000000,0,6,0,0,0,0
3.309234,-9862.566000,-19687.507000,-19701.052000,-19695.333000,-19689.012000,-19685.400000,0.000000,0.000000,0.000000,0.000000,0,6,0,0,0,0
3.312567,-9862.867000,-19687.808000,-19701.353000,-19695.634000,-19689.313000,-19685.701000,0.000000,0.000000,0.000000,0.000000,0,6,0,0,0,0
3.315900,-9862.566000,-19687.507000,-19701.052000,-19695.333000,-19689.012000,-19685.400000,0.000000,0.000000,0.000000,0.000000,0,6,0,0,0,0
3.319234,-9862.867000,-19687.808000,-19701.353000,-19695.634000,-19689.313000,-19685.701000,0.000000,0.000000,0.000000,0.000000,0,6,0,0,0,0
3.322567,-9862.265000,-19686.906167,-19700.450753,-19695.032000,-19688.411121,-19685.099000,0.000000,0.000000,0.000000,0.000000,0,6,0,0,0,0
3.325900,-9862.867000,-19687.808000,-19701.353000,-19695.634000,-19689.313000,-19685.701000,0.000000,0.000000,0.000000,0.000000,0,6,0,0,0,0
3.329234,-9861.663000,-19683.305833,-19697.446779,-19694.430000,-19685.410086,-19683.597693,0.000000,0.000000,0.000000,0.000000,0,6,0,0,0,0
3.332567,-9862.867000,-19687.808000,-19701.353000,-19695.634000,-19689.313000,-19685.701000,0.000000,0.000000,0.000000,0.000000,0,6,0,0,0,0
3.335900,-9861.061000,-19677.906498,-19692.341078,-19693.828000,-19679.710137,-19680.897309,0.000000,0.000000,0.000000,0.000000,0,6,0,0,0,0
3.339234,-9862.867000,-19687.808000,-19701.353000,-19695.634000,-19689.313000,-19685.701000,0.000000,0.000000,0.000000,0.000000,0,6,0,0,0,0
3.342567,-9862.867000,-19687.808000,-19699.851766,-19695.634000,-19686.614086,-19683.602616,0.000000,0.000000,0.000000,0.000000,0,6,0,0,0,0
3.345900,-9848.720000,-19655.970829,-19674.295389,-19681.487000,-19664.070465,-19669.155847,0.000000,0.000000,0.000000,0.000000,0,6,0,0,0,0
3.349234,-9862.867000,-19687.808000,-19701.353000,-19695.634000,-19689.313000,-19685.701000,0.000000,0.000000,0.000000,0.000000,0,6,0,0,0,0
3.352567,-9753.303000,-19488.893645,-19516.427062,-19586.070000,-19505.678805,-19549.457550,0.000000,0.000000,0.000000,0.000000,0,6,0,0,0,0
3.355900,-9862.867000,-19687.808000,-19701.353000,-19695.634000,-19689.313000,-19685.701000,0.000000,0.000000,0.000000,0.000000,0,6,0,0,0,0
3.359234,-9776.781000,-19441.311129,-19469.947566,-19609.548000,-19454.186971,-19538.761872,0.000000,0.000000,0.000000,0.000000,0,6,0,0,0,0
3.362567,-9862.867000,-19687.808000,-19701.353000,-19695.634000,-19689.313000,-19685.701000,0.000000,0.000000,0.000000,0.000000,0,6,0,0,0,0
3.365900,-9848.118000,-19670.360499,-19647.271674,-19680.885000,-19616.987168,-19614.595408,0.000000,0.000000,0.000000,0.000000,0,6,0,0,0,0
3.369234,-8449.672000,-17276.467596,-17583.178595,-18282.439000,-17612.485035,-18221.845021,0.000000,0.000000,0.000000,0.000000,0,6,0,0,0,0
3.372567,-6179.530000,-9838.097202,-11022.510322,-16012.297000,-10847.751585,-14695.070937,0.000000,0.000000,0.000000,0.000000,0,6,0,0,0,0
3.375900,-9862.867000,-19687.808000,-19701.353000,-19695.634000,-19689.313000,-19685.701000,0.000000,0.000000,0.000000,0.000000,0,6,0,0,0,0
3.379234,-9570.295000,-19043.831250,-19142.762366,-19403.062000,-19117.853220,-19271.722513,0.000000,0.000000,0.000000,0.000000,0,6,0,0,0,0
3.382567,-9862.867000,-19687.808000,-19701.353000,-19695.634000,-19689.313000,-19685.701000,0.000000,0.000000,0.000000,0.000000,0,6,0,0,0,0
3.385900,-7805.833000,-15577.814679,-16406.701834,-17638.600000,-16105.593313,-17463.793993,0.000000,0.000000,0.000000,0.000000,0,6,0,0,0,0
3.389234,-6330.933000,-11936.318498,-13061.264487,-16163.700000,-12675.180179,-15788.648231,0.000000,0.000000,0.000000,0.000000,0,6,0,0,0,0
3.392567,-9862.867000,-19687.808000,-19701.353000,-19695.634000,-19689.313000,-19685.701000,0.000000,0.000000,0.000000,0.000000,0,6,0,0,0,0
3.395900,-9558.255000,-19029.992249,-19133.124340,-19391.022000,-19099.215875,-19337.022942,0.000000,0.000000,0.000000,0.000000,0,6,0,0,0,0
3.399234,-9862.867000,-19687.808000,-19701.353000,-19695.634000,-19689.313000,-19685.701000,0.000000,0.000000,0.000000,0.000000,0,6,0,0,0,0
3.402567,-9095.919000,-18598.239257,-18849.134919,-18928.686000,-18788.618817,-18902.265699,0.000000,0.000000,0.000000,0.000000,0,6,0,0,0,0
3.405900,-9535.078000,-19246.681973,-19373.564000,-19367.845000,-19361.524000,-19357.912000,0.000000,0.000000,0.000000,0.000000,0,6,0,0,0,0
3.409234,-9862.867000,-19687.808000,-19701.353000,-19695.634000,-19689.313000,-19685.701000,0.000000,0.000000,0.000000,0.000000,0,6,0,0,0,0
3.412567,-9838.185000,-19630.743992,-19658.355947,-19670.651928,-19644.539085,-19656.822233,0.000000,0.000000,0.000000,0.000000,0,6,0,0,0,0
3.415900,-9862.867000,-19687.808000,-19701.353000,-19695.634000,-19689.313000,-19685.701000,0.000000,0.000000,0.000000,0.000000,0,6,0,0,0,0
